Wavenumbers	Absorbance	
4000.000	0.04564087	
3999.500	0.0460758	
3999.000	0.04650237	
3998.500	0.04694505	
3998.000	0.04741118	
3997.500	0.04789949	
3997.000	0.04841391	
3996.500	0.04895587	
3996.000	0.04951207	
3995.500	0.05007397	
3995.000	0.05064967	
3994.500	0.05124201	
3994.000	0.05187384	
3993.500	0.05253999	
3993.000	0.05322977	
3992.500	0.05394054	
3992.000	0.05467445	
3991.500	0.05543522	
3991.000	0.05621552	
3990.500	0.05699888	
3990.000	0.05777738	
3989.500	0.05856155	
3989.000	0.05937016	
3988.500	0.06021494	
3988.000	0.06108909	
3987.500	0.06198207	
3987.000	0.06289271	
3986.500	0.0638303	
3986.000	0.0648069	
3985.500	0.06583366	
3985.000	0.0669069	
3984.500	0.06801838	
3984.000	0.06915115	
3983.500	0.07029964	
3983.000	0.07146972	
3982.500	0.07267665	
3982.000	0.07392034	
3981.500	0.07518907	
3981.000	0.07646504	
3980.500	0.07773716	
3980.000	0.07900877	
3979.500	0.08030128	
3979.000	0.08163632	
3978.500	0.08302201	
3978.000	0.08444773	
3977.500	0.08590509	
3977.000	0.08739957	
3976.500	0.08895897	
3976.000	0.09060351	
3975.500	0.09233282	
3975.000	0.09412945	
3974.500	0.09598306	
3974.000	0.09789582	
3973.500	0.09988642	
3973.000	0.1019709	
3972.500	0.1041573	
3972.000	0.1064408	
3971.500	0.1088102	
3971.000	0.1112749	
3970.500	0.1138408	
3970.000	0.1165079	
3969.500	0.1192832	
3969.000	0.122184	
3968.500	0.1252445	
3968.000	0.1284735	
3967.500	0.1318785	
3967.000	0.1354583	
3966.500	0.1392481	
3966.000	0.1433028	
3965.500	0.1476482	
3965.000	0.1523037	
3964.500	0.157295	
3964.000	0.162621	
3963.500	0.168336	
3963.000	0.174458	
3962.500	0.1810373	
3962.000	0.1880767	
3961.500	0.1956154	
3961.000	0.203674	
3960.500	0.212249	
3960.000	0.2214102	
3959.500	0.2311787	
3959.000	0.2417348	
3958.500	0.2531179	
3958.000	0.2653961	
3957.500	0.2787149	
3957.000	0.2931364	
3956.500	0.3088085	
3956.000	0.3258506	
3955.500	0.3442317	
3955.000	0.3641701	
3954.500	0.3857857	
3954.000	0.4092893	
3953.500	0.4346881	
3953.000	0.4620829	
3952.500	0.4914431	
3952.000	0.5226622	
3951.500	0.555669	
3951.000	0.590165	
3950.500	0.6258199	
3950.000	0.6621275	
3949.500	0.6985866	
3949.000	0.7344987	
3948.500	0.7691364	
3948.000	0.8013911	
3947.500	0.8303835	
3947.000	0.8551534	
3946.500	0.875052	
3946.000	0.8892139	
3945.500	0.8972235	
3945.000	0.8988508	
3944.500	0.8940797	
3944.000	0.8832109	
3943.500	0.8666222	
3943.000	0.8446164	
3942.500	0.8181723	
3942.000	0.7879448	
3941.500	0.7549597	
3941.000	0.7200582	
3940.500	0.6841354	
3940.000	0.6479306	
3939.500	0.6121684	
3939.000	0.5774075	
3938.500	0.5439679	
3938.000	0.5120213	
3937.500	0.4816914	
3937.000	0.4530816	
3936.500	0.4261953	
3936.000	0.4010785	
3935.500	0.3776547	
3935.000	0.355757	
3934.500	0.3353434	
3934.000	0.3162708	
3933.500	0.2984774	
3933.000	0.2818373	
3932.500	0.2662954	
3932.000	0.2517636	
3931.500	0.2382998	
3931.000	0.2258439	
3930.500	0.2143145	
3930.000	0.2035852	
3929.500	0.1936375	
3929.000	0.1845043	
3928.500	0.1761129	
3928.000	0.1683447	
3927.500	0.1611298	
3927.000	0.1544375	
3926.500	0.1483285	
3926.000	0.1427277	
3925.500	0.1374724	
3925.000	0.1324062	
3924.500	0.1275563	
3924.000	0.123022	
3923.500	0.1188856	
3923.000	0.1150779	
3922.500	0.1114941	
3922.000	0.1080928	
3921.500	0.1048701	
3921.000	0.1018302	
3920.500	0.09892898	
3920.000	0.09613351	
3919.500	0.09343871	
3919.000	0.09083702	
3918.500	0.08831408	
3918.000	0.08584142	
3917.500	0.08342344	
3917.000	0.08108472	
3916.500	0.07881333	
3916.000	0.07655374	
3915.500	0.07427375	
3915.000	0.07203813	
3914.500	0.06996279	
3914.000	0.06810301	
3913.500	0.06640077	
3913.000	0.06477169	
3912.500	0.06321849	
3912.000	0.06177208	
3911.500	0.06045831	
3911.000	0.05933761	
3910.500	0.0584738	
3910.000	0.05779032	
3909.500	0.05711637	
3909.000	0.0564247	
3908.500	0.05591867	
3908.000	0.05580282	
3907.500	0.0559493	
3907.000	0.05606351	
3906.500	0.05606035	
3906.000	0.05614894	
3905.500	0.05651663	
3905.000	0.05702049	
3904.500	0.05735638	
3904.000	0.05738937	
3903.500	0.05721357	
3903.000	0.0569334	
3902.500	0.05652602	
3902.000	0.05588955	
3901.500	0.05501864	
3901.000	0.05400403	
3900.500	0.05289673	
3900.000	0.05162342	
3899.500	0.0501673	
3899.000	0.04868703	
3898.500	0.0474325	
3898.000	0.04651949	
3897.500	0.04579318	
3897.000	0.04510063	
3896.500	0.04453059	
3896.000	0.04432514	
3895.500	0.0444877	
3895.000	0.04481357	
3894.500	0.04515943	
3894.000	0.04552379	
3893.500	0.04587513	
3893.000	0.04617157	
3892.500	0.04649785	
3892.000	0.04694347	
3891.500	0.04738719	
3891.000	0.04766306	
3890.500	0.0478269	
3890.000	0.04808455	
3889.500	0.04857438	
3889.000	0.04927356	
3888.500	0.05006999	
3888.000	0.05087772	
3887.500	0.05163249	
3887.000	0.05235159	
3886.500	0.0531219	
3886.000	0.05394964	
3885.500	0.05474895	
3885.000	0.05546588	
3884.500	0.05609699	
3884.000	0.05664394	
3883.500	0.05713686	
3883.000	0.05764501	
3882.500	0.05819441	
3882.000	0.05863273	
3881.500	0.05878377	
3881.000	0.05880521	
3880.500	0.05904055	
3880.000	0.05953013	
3879.500	0.05997492	
3879.000	0.06006139	
3878.500	0.05972866	
3878.000	0.05912482	
3877.500	0.05842911	
3877.000	0.05774787	
3876.500	0.05708048	
3876.000	0.05634508	
3875.500	0.05547683	
3875.000	0.05457888	
3874.500	0.0538539	
3874.000	0.05339759	
3873.500	0.05310999	
3873.000	0.05277495	
3872.500	0.05223296	
3872.000	0.05153845	
3871.500	0.05090784	
3871.000	0.05042591	
3870.500	0.04989894	
3870.000	0.0490723	
3869.500	0.04792574	
3869.000	0.04671259	
3868.500	0.04567137	
3868.000	0.0448135	
3867.500	0.04397905	
3867.000	0.04306892	
3866.500	0.04212454	
3866.000	0.04115511	
3865.500	0.04013688	
3865.000	0.03915937	
3864.500	0.03834206	
3864.000	0.0376933	
3863.500	0.03711783	
3863.000	0.03649598	
3862.500	0.03573696	
3862.000	0.03475704	
3861.500	0.03350088	
3861.000	0.03224767	
3860.500	0.03162801	
3860.000	0.03161885	
3859.500	0.03180654	
3859.000	0.03238793	
3858.500	0.03388985	
3858.000	0.03638651	
3857.500	0.03942353	
3857.000	0.04249875	
3856.500	0.04548636	
3856.000	0.04841794	
3855.500	0.05116688	
3855.000	0.05340919	
3854.500	0.05486203	
3854.000	0.05546742	
3853.500	0.05525056	
3853.000	0.05419437	
3852.500	0.05222247	
3852.000	0.04945196	
3851.500	0.04621092	
3851.000	0.04310241	
3850.500	0.04039651	
3850.000	0.03771178	
3849.500	0.03503499	
3849.000	0.03299419	
3848.500	0.03193419	
3848.000	0.03160774	
3847.500	0.03172546	
3847.000	0.0322167	
3846.500	0.03313604	
3846.000	0.03429944	
3845.500	0.03539732	
3845.000	0.0362459	
3844.500	0.03706553	
3844.000	0.03813645	
3843.500	0.03936524	
3843.000	0.04057463	
3842.500	0.04182175	
3842.000	0.04330488	
3841.500	0.04519768	
3841.000	0.04742593	
3840.500	0.04967014	
3840.000	0.05159651	
3839.500	0.05302354	
3839.000	0.05404125	
3838.500	0.0549338	
3838.000	0.0559634	
3837.500	0.05706994	
3837.000	0.05796339	
3836.500	0.0584258	
3836.000	0.05851292	
3835.500	0.05845388	
3835.000	0.05851623	
3834.500	0.05882239	
3834.000	0.05925277	
3833.500	0.0596722	
3833.000	0.060251	
3832.500	0.0612427	
3832.000	0.06265076	
3831.500	0.06425261	
3831.000	0.06571744	
3830.500	0.06685324	
3830.000	0.0677216	
3829.500	0.06843975	
3829.000	0.06905194	
3828.500	0.06960888	
3828.000	0.07019673	
3827.500	0.07078609	
3827.000	0.07126521	
3826.500	0.07162178	
3826.000	0.07197245	
3825.500	0.07238994	
3825.000	0.07282564	
3824.500	0.07316165	
3824.000	0.07325157	
3823.500	0.07300041	
3823.000	0.07243412	
3822.500	0.07172651	
3822.000	0.07087462	
3821.500	0.06973765	
3821.000	0.06843096	
3820.500	0.06721665	
3820.000	0.0661937	
3819.500	0.06526978	
3819.000	0.06432271	
3818.500	0.06335473	
3818.000	0.06244285	
3817.500	0.06152394	
3817.000	0.06042533	
3816.500	0.05913151	
3816.000	0.05781064	
3815.500	0.05654852	
3815.000	0.05525485	
3814.500	0.05375493	
3814.000	0.05205352	
3813.500	0.05047168	
3813.000	0.04929739	
3812.500	0.04848697	
3812.000	0.04782466	
3811.500	0.04743185	
3811.000	0.04768768	
3810.500	0.0487219	
3810.000	0.05023744	
3809.500	0.05178588	
3809.000	0.05301066	
3808.500	0.05388198	
3808.000	0.05463874	
3807.500	0.05542359	
3807.000	0.05611621	
3806.500	0.05668182	
3806.000	0.05729607	
3805.500	0.05810164	
3805.000	0.05907105	
3804.500	0.0600684	
3804.000	0.06099773	
3803.500	0.06181293	
3803.000	0.06240779	
3802.500	0.06270353	
3802.000	0.06282776	
3801.500	0.06289294	
3801.000	0.0628854	
3800.500	0.06273191	
3800.000	0.06235549	
3799.500	0.06171491	
3799.000	0.06084255	
3798.500	0.05989007	
3798.000	0.05901335	
3797.500	0.0581885	
3797.000	0.05737494	
3796.500	0.05676106	
3796.000	0.05654068	
3795.500	0.05667274	
3795.000	0.05693486	
3794.500	0.05712293	
3794.000	0.05718351	
3793.500	0.05723143	
3793.000	0.05736536	
3792.500	0.05755657	
3792.000	0.0577478	
3791.500	0.05800626	
3791.000	0.05845061	
3790.500	0.05910528	
3790.000	0.05987244	
3789.500	0.06062414	
3789.000	0.06130958	
3788.500	0.06196631	
3788.000	0.06262629	
3787.500	0.06326871	
3787.000	0.06388322	
3786.500	0.06454888	
3786.000	0.06539203	
3785.500	0.06642448	
3785.000	0.06751768	
3784.500	0.06857202	
3784.000	0.06962779	
3783.500	0.07079876	
3783.000	0.07212998	
3782.500	0.07357898	
3782.000	0.07508783	
3781.500	0.07662512	
3781.000	0.07816537	
3780.500	0.07966694	
3780.000	0.08110995	
3779.500	0.08252342	
3779.000	0.08396457	
3778.500	0.08548216	
3778.000	0.08706119	
3777.500	0.08868155	
3777.000	0.09045118	
3776.500	0.09262727	
3776.000	0.09528667	
3775.500	0.09822385	
3775.000	0.101233	
3774.500	0.1044389	
3774.000	0.1080796	
3773.500	0.1122621	
3773.000	0.1168757	
3772.500	0.1217934	
3772.000	0.1269906	
3771.500	0.1324178	
3771.000	0.1380197	
3770.500	0.1437779	
3770.000	0.1498121	
3769.500	0.1562399	
3769.000	0.1631171	
3768.500	0.1704208	
3768.000	0.1780862	
3767.500	0.186096	
3767.000	0.1945544	
3766.500	0.2035682	
3766.000	0.213152	
3765.500	0.2231065	
3765.000	0.2333225	
3764.500	0.2438246	
3764.000	0.2546208	
3763.500	0.2656278	
3763.000	0.2766834	
3762.500	0.2875299	
3762.000	0.2978062	
3761.500	0.3071274	
3761.000	0.3153505	
3760.500	0.3223593	
3760.000	0.3280944	
3759.500	0.3323813	
3759.000	0.3352121	
3758.500	0.3367677	
3758.000	0.3370133	
3757.500	0.3357824	
3757.000	0.3330689	
3756.500	0.3291673	
3756.000	0.3245352	
3755.500	0.3194205	
3755.000	0.3135592	
3754.500	0.306901	
3754.000	0.2997857	
3753.500	0.2925618	
3753.000	0.2851931	
3752.500	0.277322	
3752.000	0.2686022	
3751.500	0.2592992	
3751.000	0.250254	
3750.500	0.2416058	
3750.000	0.2329016	
3749.500	0.2244315	
3749.000	0.2169211	
3748.500	0.2106338	
3748.000	0.2052158	
3747.500	0.2002842	
3747.000	0.1957317	
3746.500	0.1915432	
3746.000	0.1878003	
3745.500	0.184305	
3745.000	0.1807743	
3744.500	0.1773541	
3744.000	0.1742358	
3743.500	0.171366	
3743.000	0.1685377	
3742.500	0.1656599	
3742.000	0.1629628	
3741.500	0.1610809	
3741.000	0.1604541	
3740.500	0.1605643	
3740.000	0.1610519	
3739.500	0.1622801	
3739.000	0.1645822	
3738.500	0.1678093	
3738.000	0.1715141	
3737.500	0.1751606	
3737.000	0.1784009	
3736.500	0.1813001	
3736.000	0.1841303	
3735.500	0.1869341	
3735.000	0.1895128	
3734.500	0.191617	
3734.000	0.1931273	
3733.500	0.1941881	
3733.000	0.1950121	
3732.500	0.1956038	
3732.000	0.1959049	
3731.500	0.1960046	
3731.000	0.195969	
3730.500	0.1956808	
3730.000	0.1950327	
3729.500	0.1941052	
3729.000	0.1932411	
3728.500	0.1925638	
3728.000	0.1918353	
3727.500	0.1908937	
3727.000	0.1897928	
3726.500	0.1888048	
3726.000	0.1879721	
3725.500	0.1868445	
3725.000	0.185064	
3724.500	0.1827029	
3724.000	0.1799009	
3723.500	0.1768822	
3723.000	0.1739341	
3722.500	0.1710221	
3722.000	0.168023	
3721.500	0.1651301	
3721.000	0.1625094	
3720.500	0.1599787	
3720.000	0.1573867	
3719.500	0.1549156	
3719.000	0.1528277	
3718.500	0.1511862	
3718.000	0.1500456	
3717.500	0.1493254	
3717.000	0.1488367	
3716.500	0.1487612	
3716.000	0.1494199	
3715.500	0.1505407	
3715.000	0.1516716	
3714.500	0.1528489	
3714.000	0.1542751	
3713.500	0.1560117	
3713.000	0.158155	
3712.500	0.1606678	
3712.000	0.1633609	
3711.500	0.1661064	
3711.000	0.1688596	
3710.500	0.1715651	
3710.000	0.1743173	
3709.500	0.177239	
3709.000	0.1804516	
3708.500	0.1841956	
3708.000	0.1886284	
3707.500	0.1934553	
3707.000	0.1985964	
3706.500	0.2045766	
3706.000	0.2115873	
3705.500	0.2191227	
3705.000	0.2267477	
3704.500	0.2350638	
3704.000	0.2435944	
3703.500	0.2521594	
3703.000	0.2616776	
3702.500	0.2719854	
3702.000	0.282517	
3701.500	0.292843	
3701.000	0.303405	
3700.500	0.3145616	
3700.000	0.3258288	
3699.500	0.3368331	
3699.000	0.3480365	
3698.500	0.359698	
3698.000	0.3712353	
3697.500	0.3822481	
3697.000	0.3931433	
3696.500	0.4039975	
3696.000	0.413887	
3695.500	0.4223766	
3695.000	0.4301397	
3694.500	0.4374747	
3694.000	0.4431235	
3693.500	0.4471843	
3693.000	0.4505544	
3692.500	0.4524612	
3692.000	0.4522186	
3691.500	0.4496442	
3691.000	0.4454409	
3690.500	0.439539	
3690.000	0.4313338	
3689.500	0.4209922	
3689.000	0.4095113	
3688.500	0.3971228	
3688.000	0.3834885	
3687.500	0.3689267	
3687.000	0.3541702	
3686.500	0.3391747	
3686.000	0.3237023	
3685.500	0.3084024	
3685.000	0.2941771	
3684.500	0.280818	
3684.000	0.2676311	
3683.500	0.25487	
3683.000	0.2431392	
3682.500	0.232392	
3682.000	0.2223167	
3681.500	0.212985	
3681.000	0.204517	
3680.500	0.1967529	
3680.000	0.1894899	
3679.500	0.1828524	
3679.000	0.176931	
3678.500	0.171354	
3678.000	0.1656525	
3677.500	0.1599323	
3677.000	0.1544985	
3676.500	0.1492111	
3676.000	0.1437369	
3675.500	0.1382061	
3675.000	0.1329866	
3674.500	0.1280797	
3674.000	0.1231529	
3673.500	0.1181113	
3673.000	0.113218	
3672.500	0.1087107	
3672.000	0.1045112	
3671.500	0.1004147	
3671.000	0.09640908	
3670.500	0.09260089	
3670.000	0.08890432	
3669.500	0.08516008	
3669.000	0.08131238	
3668.500	0.07735271	
3668.000	0.07329607	
3667.500	0.06928302	
3667.000	0.06545828	
3666.500	0.06186925	
3666.000	0.05855421	
3665.500	0.05567519	
3665.000	0.05331216	
3664.500	0.05133801	
3664.000	0.04946188	
3663.500	0.04758276	
3663.000	0.04586901	
3662.500	0.04451661	
3662.000	0.04341996	
3661.500	0.04234656	
3661.000	0.04127764	
3660.500	0.04038273	
3660.000	0.0397707	
3659.500	0.03936289	
3659.000	0.03892907	
3658.500	0.03831622	
3658.000	0.03759936	
3657.500	0.03694773	
3657.000	0.03636381	
3656.500	0.03570148	
3656.000	0.03489882	
3655.500	0.03406211	
3655.000	0.03329533	
3654.500	0.03263937	
3654.000	0.03221445	
3653.500	0.03224149	
3653.000	0.03279655	
3652.500	0.03356046	
3652.000	0.03412396	
3651.500	0.03442239	
3651.000	0.03464242	
3650.500	0.03483799	
3650.000	0.0348161	
3649.500	0.03433656	
3649.000	0.03332244	
3648.500	0.03184094	
3648.000	0.03008619	
3647.500	0.02811732	
3647.000	0.02588392	
3646.500	0.02338922	
3646.000	0.02081256	
3645.500	0.01837018	
3645.000	0.01618131	
3644.500	0.01433774	
3644.000	0.01293292	
3643.500	0.01191784	
3643.000	0.01106256	
3642.500	0.01017352	
3642.000	0.009261511	
3641.500	0.008454747	
3641.000	0.007804356	
3640.500	0.00726971	
3640.000	0.00679661	
3639.500	0.00635047	
3639.000	0.005846176	
3638.500	0.005294052	
3638.000	0.004740941	
3637.500	0.004177767	
3637.000	0.003609408	
3636.500	0.003024209	
3636.000	0.002503018	
3635.500	0.00223133	
3635.000	0.002193193	
3634.500	0.002265671	
3634.000	0.002501799	
3633.500	0.003009322	
3633.000	0.003843317	
3632.500	0.005021419	
3632.000	0.006388452	
3631.500	0.007715021	
3631.000	0.008837337	
3630.500	0.009642347	
3630.000	0.01009843	
3629.500	0.01018303	
3629.000	0.009861497	
3628.500	0.009223553	
3628.000	0.008320288	
3627.500	0.007134638	
3627.000	0.005730663	
3626.500	0.004252783	
3626.000	0.002965471	
3625.500	0.002016237	
3625.000	0.001267248	
3624.500	0.000779463	
3624.000	0.0009135396	
3623.500	0.001645125	
3623.000	0.002654309	
3622.500	0.003692252	
3622.000	0.004565762	
3621.500	0.005256805	
3621.000	0.005928788	
3620.500	0.006572851	
3620.000	0.00703259	
3619.500	0.007324175	
3619.000	0.007569893	
3618.500	0.007775589	
3618.000	0.007835015	
3617.500	0.007761603	
3617.000	0.007589105	
3616.500	0.007350011	
3616.000	0.007263286	
3615.500	0.007428405	
3615.000	0.007587437	
3614.500	0.007681935	
3614.000	0.007915961	
3613.500	0.008223709	
3613.000	0.008489969	
3612.500	0.008843521	
3612.000	0.009325541	
3611.500	0.009819656	
3611.000	0.01034026	
3610.500	0.01087449	
3610.000	0.01129369	
3609.500	0.01163033	
3609.000	0.01200619	
3608.500	0.01234051	
3608.000	0.01250296	
3607.500	0.012567	
3607.000	0.01263705	
3606.500	0.01277734	
3606.000	0.01303808	
3605.500	0.01329989	
3605.000	0.01341868	
3604.500	0.0136117	
3604.000	0.0141139	
3603.500	0.01477563	
3603.000	0.01545309	
3602.500	0.0161536	
3602.000	0.01674547	
3601.500	0.01712124	
3601.000	0.01750654	
3600.500	0.01796808	
3600.000	0.01820627	
3599.500	0.01820698	
3599.000	0.0182911	
3598.500	0.01841139	
3598.000	0.01822271	
3597.500	0.01781509	
3597.000	0.01749083	
3596.500	0.01712765	
3596.000	0.01645152	
3595.500	0.01567579	
3595.000	0.01515972	
3594.500	0.01477088	
3594.000	0.01416843	
3593.500	0.01349017	
3593.000	0.01312638	
3592.500	0.01301122	
3592.000	0.01281606	
3591.500	0.01256706	
3591.000	0.01247727	
3590.500	0.0124205	
3590.000	0.01227377	
3589.500	0.01225947	
3589.000	0.01243425	
3588.500	0.01232152	
3588.000	0.01175785	
3587.500	0.01114721	
3587.000	0.01059388	
3586.500	0.009900707	
3586.000	0.009033353	
3585.500	0.008283264	
3585.000	0.007679896	
3584.500	0.006947348	
3584.000	0.00613036	
3583.500	0.005592731	
3583.000	0.005356587	
3582.500	0.005074648	
3582.000	0.004693589	
3581.500	0.004436509	
3581.000	0.004392742	
3580.500	0.004395481	
3580.000	0.004346727	
3579.500	0.004367776	
3579.000	0.004398762	
3578.500	0.004255603	
3578.000	0.004040633	
3577.500	0.003918599	
3577.000	0.003888611	
3576.500	0.003934246	
3576.000	0.003926552	
3575.500	0.003839494	
3575.000	0.003792251	
3574.500	0.003893353	
3574.000	0.004098956	
3573.500	0.00430267	
3573.000	0.004516334	
3572.500	0.004835166	
3572.000	0.005308791	
3571.500	0.005872979	
3571.000	0.006496081	
3570.500	0.007123713	
3570.000	0.007716976	
3569.500	0.008351667	
3569.000	0.008957798	
3568.500	0.009414031	
3568.000	0.009686096	
3567.500	0.00985485	
3567.000	0.009948288	
3566.500	0.009907323	
3566.000	0.009704402	
3565.500	0.009424513	
3565.000	0.009149731	
3564.500	0.008848288	
3564.000	0.008452499	
3563.500	0.008010858	
3563.000	0.007659717	
3562.500	0.007446553	
3562.000	0.007302052	
3561.500	0.007171762	
3561.000	0.007094046	
3560.500	0.00710772	
3560.000	0.007178936	
3559.500	0.007249857	
3559.000	0.007301074	
3558.500	0.00734611	
3558.000	0.007394127	
3557.500	0.007457027	
3557.000	0.007553251	
3556.500	0.007680358	
3556.000	0.007817815	
3555.500	0.007952756	
3555.000	0.008084696	
3554.500	0.008221834	
3554.000	0.008381358	
3553.500	0.008570641	
3553.000	0.00876118	
3552.500	0.008910101	
3552.000	0.009014445	
3551.500	0.009119055	
3551.000	0.00926055	
3550.500	0.009425594	
3550.000	0.009583911	
3549.500	0.009733884	
3549.000	0.009887459	
3548.500	0.01003205	
3548.000	0.01013962	
3547.500	0.01020506	
3547.000	0.01024352	
3546.500	0.0102657	
3546.000	0.01027837	
3545.500	0.01027931	
3545.000	0.01025502	
3544.500	0.010196	
3544.000	0.0101141	
3543.500	0.0100257	
3543.000	0.009933833	
3542.500	0.009844162	
3542.000	0.009780728	
3541.500	0.009772853	
3541.000	0.009821668	
3540.500	0.009909247	
3540.000	0.01002992	
3539.500	0.01019374	
3539.000	0.01039593	
3538.500	0.01060694	
3538.000	0.01080346	
3537.500	0.01098762	
3537.000	0.01116188	
3536.500	0.01131615	
3536.000	0.0114517	
3535.500	0.01158546	
3535.000	0.01172278	
3534.500	0.0118456	
3534.000	0.01193832	
3533.500	0.01199791	
3533.000	0.01201738	
3532.500	0.01196365	
3532.000	0.01181205	
3531.500	0.01156735	
3531.000	0.01126559	
3530.500	0.0109323	
3530.000	0.01057381	
3529.500	0.01018755	
3529.000	0.009771138	
3528.500	0.009312192	
3528.000	0.008797503	
3527.500	0.008233975	
3527.000	0.00765064	
3526.500	0.007084272	
3526.000	0.006565058	
3525.500	0.006098853	
3525.000	0.005660577	
3524.500	0.005214303	
3524.000	0.00473695	
3523.500	0.00422255	
3523.000	0.00367436	
3522.500	0.003101564	
3522.000	0.002525516	
3521.500	0.00197327	
3521.000	0.001458551	
3520.500	0.0009784454	
3520.000	0.0005254322	
3519.500	0.0001005207	
3519.000	-0.000295887	
3518.500	-0.0006655647	
3518.000	-0.001004073	
3517.500	-0.001302471	
3517.000	-0.001560405	
3516.500	-0.001783531	
3516.000	-0.001976274	
3515.500	-0.002147147	
3515.000	-0.002319619	
3514.500	-0.002512042	
3514.000	-0.002716229	
3513.500	-0.002901856	
3513.000	-0.003046265	
3512.500	-0.003150857	
3512.000	-0.003233048	
3511.500	-0.003312153	
3511.000	-0.00340178	
3510.500	-0.003504784	
3510.000	-0.003610647	
3509.500	-0.003702986	
3509.000	-0.003776612	
3508.500	-0.003840265	
3508.000	-0.003906508	
3507.500	-0.003979239	
3507.000	-0.004051835	
3506.500	-0.004116562	
3506.000	-0.004175288	
3505.500	-0.00423947	
3505.000	-0.004318244	
3504.500	-0.004406526	
3504.000	-0.004487423	
3503.500	-0.004548571	
3503.000	-0.004595396	
3502.500	-0.004643711	
3502.000	-0.004702925	
3501.500	-0.004770941	
3501.000	-0.004840554	
3500.500	-0.004904773	
3500.000	-0.004959609	
3499.500	-0.005007924	
3499.000	-0.005058166	
3498.500	-0.005115284	
3498.000	-0.005177155	
3497.500	-0.005240766	
3497.000	-0.005309713	
3496.500	-0.005392306	
3496.000	-0.005489601	
3495.500	-0.00558639	
3495.000	-0.005662872	
3494.500	-0.005712944	
3494.000	-0.005744716	
3493.500	-0.005770341	
3493.000	-0.005793657	
3492.500	-0.005811748	
3492.000	-0.005821817	
3491.500	-0.005827638	
3491.000	-0.005837282	
3490.500	-0.005857433	
3490.000	-0.005888884	
3489.500	-0.005924641	
3489.000	-0.00595328	
3488.500	-0.005967286	
3488.000	-0.005969564	
3487.500	-0.005968539	
3487.000	-0.005964467	
3486.500	-0.005950613	
3486.000	-0.005919446	
3485.500	-0.005869695	
3485.000	-0.005806632	
3484.500	-0.005742315	
3484.000	-0.005690786	
3483.500	-0.005659389	
3483.000	-0.005645236	
3482.500	-0.005641636	
3482.000	-0.005648129	
3481.500	-0.005667782	
3481.000	-0.005700962	
3480.500	-0.005745811	
3480.000	-0.005798903	
3479.500	-0.005850375	
3479.000	-0.005887096	
3478.500	-0.0059049	
3478.000	-0.005911914	
3477.500	-0.005916055	
3477.000	-0.005913188	
3476.500	-0.005896681	
3476.000	-0.005868572	
3475.500	-0.005837235	
3475.000	-0.005808528	
3474.500	-0.005784056	
3474.000	-0.005764296	
3473.500	-0.00574992	
3473.000	-0.005739175	
3472.500	-0.005727096	
3472.000	-0.005705868	
3471.500	-0.00566761	
3471.000	-0.005609336	
3470.500	-0.005538887	
3470.000	-0.005467788	
3469.500	-0.005400813	
3469.000	-0.005335083	
3468.500	-0.005268555	
3468.000	-0.005203074	
3467.500	-0.005140053	
3467.000	-0.005078668	
3466.500	-0.005018823	
3466.000	-0.004961189	
3465.500	-0.004903857	
3465.000	-0.004842984	
3464.500	-0.004776798	
3464.000	-0.004708393	
3463.500	-0.004643053	
3463.000	-0.004584065	
3462.500	-0.004530867	
3462.000	-0.00448129	
3461.500	-0.004435772	
3461.000	-0.004401181	
3460.500	-0.004384135	
3460.000	-0.004382567	
3459.500	-0.004384078	
3459.000	-0.004379501	
3458.500	-0.004372811	
3458.000	-0.004376283	
3457.500	-0.004397702	
3457.000	-0.00443683	
3456.500	-0.0044888	
3456.000	-0.004544441	
3455.500	-0.004594026	
3455.000	-0.00463402	
3454.500	-0.004664582	
3454.000	-0.004678888	
3453.500	-0.004664265	
3453.000	-0.004620019	
3452.500	-0.004566281	
3452.000	-0.004523072	
3451.500	-0.004489446	
3451.000	-0.004449267	
3450.500	-0.004394991	
3450.000	-0.004331756	
3449.500	-0.004263926	
3449.000	-0.004188633	
3448.500	-0.004108618	
3448.000	-0.004041474	
3447.500	-0.004006719	
3447.000	-0.0040113	
3446.500	-0.004046863	
3446.000	-0.004100631	
3445.500	-0.004165298	
3445.000	-0.004236179	
3444.500	-0.004300383	
3444.000	-0.004340098	
3443.500	-0.004350401	
3443.000	-0.004345332	
3442.500	-0.004339364	
3442.000	-0.004327679	
3441.500	-0.00429419	
3441.000	-0.004232393	
3440.500	-0.004150263	
3440.000	-0.004053104	
3439.500	-0.003938934	
3439.000	-0.003813965	
3438.500	-0.00370351	
3438.000	-0.003633616	
3437.500	-0.003607176	
3437.000	-0.003604194	
3436.500	-0.003605212	
3436.000	-0.003603868	
3435.500	-0.003604398	
3435.000	-0.003609629	
3434.500	-0.003619083	
3434.000	-0.003632364	
3433.500	-0.003648854	
3433.000	-0.003663867	
3432.500	-0.003667231	
3432.000	-0.003649787	
3431.500	-0.003604087	
3431.000	-0.003526958	
3430.500	-0.003421277	
3430.000	-0.003298606	
3429.500	-0.00317744	
3429.000	-0.003073416	
3428.500	-0.002991633	
3428.000	-0.002927062	
3427.500	-0.002871458	
3427.000	-0.002817496	
3426.500	-0.002760209	
3426.000	-0.002697744	
3425.500	-0.002632736	
3425.000	-0.002571226	
3424.500	-0.002518949	
3424.000	-0.002476844	
3423.500	-0.002439616	
3423.000	-0.002400184	
3422.500	-0.002357234	
3422.000	-0.002318438	
3421.500	-0.002295364	
3421.000	-0.002293276	
3420.500	-0.002308626	
3420.000	-0.002334705	
3419.500	-0.002365064	
3419.000	-0.002391524	
3418.500	-0.002403519	
3418.000	-0.002392881	
3417.500	-0.002358807	
3417.000	-0.002310208	
3416.500	-0.002257561	
3416.000	-0.002205958	
3415.500	-0.002152387	
3415.000	-0.002093373	
3414.500	-0.002030964	
3414.000	-0.001970725	
3413.500	-0.001914846	
3413.000	-0.001860258	
3412.500	-0.001803903	
3412.000	-0.001747944	
3411.500	-0.001698685	
3411.000	-0.001660636	
3410.500	-0.001633025	
3410.000	-0.001610287	
3409.500	-0.001582923	
3409.000	-0.00154183	
3408.500	-0.001481334	
3408.000	-0.001403028	
3407.500	-0.00131382	
3407.000	-0.001221294	
3406.500	-0.001126663	
3406.000	-0.001024119	
3405.500	-0.0009089292	
3405.000	-0.0007849183	
3404.500	-0.0006598068	
3404.000	-0.0005347911	
3403.500	-0.000404025	
3403.000	-0.0002665208	
3402.500	-0.0001342288	
3402.000	-2.248697E-5	
3401.500	6.358364E-5	
3401.000	0.0001315385	
3400.500	0.0001912489	
3400.000	0.0002487242	
3399.500	0.0003059928	
3399.000	0.0003623353	
3398.500	0.000413744	
3398.000	0.0004582139	
3397.500	0.0005037591	
3397.000	0.0005661517	
3396.500	0.0006568735	
3396.000	0.00077422	
3395.500	0.0009071032	
3395.000	0.001046124	
3394.500	0.001189764	
3394.000	0.001336254	
3393.500	0.001476263	
3393.000	0.001597872	
3392.500	0.001699475	
3392.000	0.00179485	
3391.500	0.001901328	
3391.000	0.002023206	
3390.500	0.002149504	
3390.000	0.002265944	
3389.500	0.002366048	
3389.000	0.002449722	
3388.500	0.002522377	
3388.000	0.00259454	
3387.500	0.002679161	
3387.000	0.002781066	
3386.500	0.002890462	
3386.000	0.00299197	
3385.500	0.003079256	
3385.000	0.003159786	
3384.500	0.003245059	
3384.000	0.003338432	
3383.500	0.003435857	
3383.000	0.003534469	
3382.500	0.003635809	
3382.000	0.003741635	
3381.500	0.003848371	
3381.000	0.003948524	
3380.500	0.004037717	
3380.000	0.004120562	
3379.500	0.004208363	
3379.000	0.004311787	
3378.500	0.004433873	
3378.000	0.004570442	
3377.500	0.004714584	
3377.000	0.004861999	
3376.500	0.005012035	
3376.000	0.005166682	
3375.500	0.00532811	
3375.000	0.005498363	
3374.500	0.005676751	
3374.000	0.005858284	
3373.500	0.00603527	
3373.000	0.006204112	
3372.500	0.006369773	
3372.000	0.006542564	
3371.500	0.006729273	
3371.000	0.006928552	
3370.500	0.007133744	
3370.000	0.00733846	
3369.500	0.007538327	
3369.000	0.007729631	
3368.500	0.007908262	
3368.000	0.008068091	
3367.500	0.008203272	
3367.000	0.008312505	
3366.500	0.008405887	
3366.000	0.008501379	
3365.500	0.008613174	
3365.000	0.008743204	
3364.500	0.008884669	
3364.000	0.009031694	
3363.500	0.009183395	
3363.000	0.009345171	
3362.500	0.009522002	
3362.000	0.009716405	
3361.500	0.009923629	
3361.000	0.01013664	
3360.500	0.0103524	
3360.000	0.01057604	
3359.500	0.01081468	
3359.000	0.01106582	
3358.500	0.0113118	
3358.000	0.01152855	
3357.500	0.01170522	
3357.000	0.01185558	
3356.500	0.01201066	
3356.000	0.01219659	
3355.500	0.01241855	
3355.000	0.0126657	
3354.500	0.01292398	
3354.000	0.01318367	
3353.500	0.01343691	
3353.000	0.01367696	
3352.500	0.01390122	
3352.000	0.01411107	
3351.500	0.01430959	
3351.000	0.01449999	
3350.500	0.01468806	
3350.000	0.01488132	
3349.500	0.01508216	
3349.000	0.01528425	
3348.500	0.01547849	
3348.000	0.01566301	
3347.500	0.01584539	
3347.000	0.01603554	
3346.500	0.01623728	
3346.000	0.01644917	
3345.500	0.0166685	
3345.000	0.0168933	
3344.500	0.01712161	
3344.000	0.01735545	
3343.500	0.01760245	
3343.000	0.01787321	
3342.500	0.01816974	
3342.000	0.01848042	
3341.500	0.01878623	
3341.000	0.01907294	
3340.500	0.0193376	
3340.000	0.01958768	
3339.500	0.01983511	
3339.000	0.02008949	
3338.500	0.0203519	
3338.000	0.02061374	
3337.500	0.02086168	
3337.000	0.02108698	
3336.500	0.02128911	
3336.000	0.02147532	
3335.500	0.02165521	
3335.000	0.02183592	
3334.500	0.02202084	
3334.000	0.02221215	
3333.500	0.02241163	
3333.000	0.02261699	
3332.500	0.02281928	
3332.000	0.02300789	
3331.500	0.02317758	
3331.000	0.02333225	
3330.500	0.0234817	
3330.000	0.02363746	
3329.500	0.02380923	
3329.000	0.02400135	
3328.500	0.02421395	
3328.000	0.02444601	
3327.500	0.02470091	
3327.000	0.02498241	
3326.500	0.02529051	
3326.000	0.0256162	
3325.500	0.02594661	
3325.000	0.02627102	
3324.500	0.02658743	
3324.000	0.02690249	
3323.500	0.02722454	
3323.000	0.02755286	
3322.500	0.02787459	
3322.000	0.02817472	
3321.500	0.02844911	
3321.000	0.02870879	
3320.500	0.02897264	
3320.000	0.02925725	
3319.500	0.02957263	
3319.000	0.02992066	
3318.500	0.03029796	
3318.000	0.03069713	
3317.500	0.03111064	
3317.000	0.03152896	
3316.500	0.03193984	
3316.000	0.03233144	
3315.500	0.03270087	
3315.000	0.0330579	
3314.500	0.0334158	
3314.000	0.03377877	
3313.500	0.03413794	
3313.000	0.03448077	
3312.500	0.03480301	
3312.000	0.03511198	
3311.500	0.03542036	
3311.000	0.03573795	
3310.500	0.03606752	
3310.000	0.03640514	
3309.500	0.03674311	
3309.000	0.03707425	
3308.500	0.03739474	
3308.000	0.03770583	
3307.500	0.03801016	
3307.000	0.03830583	
3306.500	0.03858306	
3306.000	0.03883046	
3305.500	0.03904326	
3305.000	0.03922917	
3304.500	0.03940577	
3304.000	0.03959328	
3303.500	0.03980622	
3303.000	0.04004901	
3302.500	0.04031813	
3302.000	0.04060573	
3301.500	0.04090718	
3301.000	0.04122279	
3300.500	0.04155759	
3300.000	0.04191683	
3299.500	0.04230344	
3299.000	0.042715	
3298.500	0.04314941	
3298.000	0.04360403	
3297.500	0.04407433	
3297.000	0.04454899	
3296.500	0.0450116	
3296.000	0.04545104	
3295.500	0.04587041	
3295.000	0.04628493	
3294.500	0.04670948	
3294.000	0.04714665	
3293.500	0.04758644	
3293.000	0.04801611	
3292.500	0.04842981	
3292.000	0.04883131	
3291.500	0.04923041	
3291.000	0.04964055	
3290.500	0.05007598	
3290.000	0.05055128	
3289.500	0.05107317	
3289.000	0.0516428	
3288.500	0.05225195	
3288.000	0.05289347	
3287.500	0.0535596	
3287.000	0.05424454	
3286.500	0.05493929	
3286.000	0.05563391	
3285.500	0.05632129	
3285.000	0.05700408	
3284.500	0.05769365	
3284.000	0.05840473	
3283.500	0.05914554	
3283.000	0.0599179	
3282.500	0.06071547	
3282.000	0.06153186	
3281.500	0.06236379	
3281.000	0.06321906	
3280.500	0.06411395	
3280.000	0.0650629	
3279.500	0.0660582	
3279.000	0.06707474	
3278.500	0.0680872	
3278.000	0.06908621	
3277.500	0.07007263	
3277.000	0.07103897	
3276.500	0.07196499	
3276.000	0.07282853	
3275.500	0.07362237	
3275.000	0.07435122	
3274.500	0.07502291	
3274.000	0.07563245	
3273.500	0.07617427	
3273.000	0.07664056	
3272.500	0.07703612	
3272.000	0.07737387	
3271.500	0.07767274	
3271.000	0.07795215	
3270.500	0.0782265	
3270.000	0.07849639	
3269.500	0.07875119	
3269.000	0.07897802	
3268.500	0.07917661	
3268.000	0.07935882	
3267.500	0.07954068	
3267.000	0.07973335	
3266.500	0.07994199	
3266.000	0.08017036	
3265.500	0.08042413	
3265.000	0.08071109	
3264.500	0.08103766	
3264.000	0.0814074	
3263.500	0.08181397	
3263.000	0.08225161	
3262.500	0.08271917	
3262.000	0.08322604	
3261.500	0.08378159	
3261.000	0.08439188	
3260.500	0.08505069	
3260.000	0.08574613	
3259.500	0.08646118	
3259.000	0.08718485	
3258.500	0.08791511	
3258.000	0.08866175	
3257.500	0.08943265	
3257.000	0.09022557	
3256.500	0.09103297	
3256.000	0.09185396	
3255.500	0.09269997	
3255.000	0.09358116	
3254.500	0.09449603	
3254.000	0.09542995	
3253.500	0.09636206	
3253.000	0.09727266	
3252.500	0.09815027	
3252.000	0.09899889	
3251.500	0.09983534	
3251.000	0.100676	
3250.500	0.1015225	
3250.000	0.1023653	
3249.500	0.1031964	
3249.000	0.1040165	
3248.500	0.1048255	
3248.000	0.1056141	
3247.500	0.1063668	
3247.000	0.1070746	
3246.500	0.1077416	
3246.000	0.1083801	
3245.500	0.1090007	
3245.000	0.1096111	
3244.500	0.1102156	
3244.000	0.1108163	
3243.500	0.1114092	
3243.000	0.1119887	
3242.500	0.1125597	
3242.000	0.1131434	
3241.500	0.1137648	
3241.000	0.1144337	
3240.500	0.1151427	
3240.000	0.1158826	
3239.500	0.1166521	
3239.000	0.1174498	
3238.500	0.1182675	
3238.000	0.1190964	
3237.500	0.1199367	
3237.000	0.120795	
3236.500	0.1216755	
3236.000	0.1225731	
3235.500	0.1234807	
3235.000	0.1243902	
3234.500	0.1252959	
3234.000	0.1261969	
3233.500	0.1270997	
3233.000	0.1280144	
3232.500	0.12895	
3232.000	0.1299103	
3231.500	0.1308968	
3231.000	0.131908	
3230.500	0.1329434	
3230.000	0.1339991	
3229.500	0.1350688	
3229.000	0.1361422	
3228.500	0.1372131	
3228.000	0.1382843	
3227.500	0.1393653	
3227.000	0.1404615	
3226.500	0.1415692	
3226.000	0.1426819	
3225.500	0.1437989	
3225.000	0.1449253	
3224.500	0.1460668	
3224.000	0.1472262	
3223.500	0.1484023	
3223.000	0.1495896	
3222.500	0.1507822	
3222.000	0.1519794	
3221.500	0.1531893	
3221.000	0.1544202	
3220.500	0.1556744	
3220.000	0.156945	
3219.500	0.1582263	
3219.000	0.1595169	
3218.500	0.1608204	
3218.000	0.1621382	
3217.500	0.1634673	
3217.000	0.1648014	
3216.500	0.1661389	
3216.000	0.1674855	
3215.500	0.1688515	
3215.000	0.1702439	
3214.500	0.1716618	
3214.000	0.1730962	
3213.500	0.1745335	
3213.000	0.1759623	
3212.500	0.1773801	
3212.000	0.178798	
3211.500	0.1802355	
3211.000	0.1817067	
3210.500	0.1832131	
3210.000	0.1847468	
3209.500	0.1863046	
3209.000	0.1878896	
3208.500	0.1895014	
3208.000	0.1911316	
3207.500	0.1927694	
3207.000	0.1944135	
3206.500	0.1960751	
3206.000	0.1977704	
3205.500	0.1995113	
3205.000	0.2013004	
3204.500	0.203125	
3204.000	0.2049647	
3203.500	0.2068018	
3203.000	0.2086356	
3202.500	0.2104816	
3202.000	0.2123555	
3201.500	0.2142627	
3201.000	0.2161961	
3200.500	0.2181435	
3200.000	0.2200959	
3199.500	0.2220503	
3199.000	0.2240065	
3198.500	0.225966	
3198.000	0.227932	
3197.500	0.2299153	
3197.000	0.231937	
3196.500	0.2340177	
3196.000	0.2361616	
3195.500	0.2383528	
3195.000	0.2405685	
3194.500	0.2427944	
3194.000	0.2450363	
3193.500	0.2473075	
3193.000	0.2496186	
3192.500	0.2519685	
3192.000	0.2543502	
3191.500	0.2567598	
3191.000	0.2592011	
3190.500	0.261678	
3190.000	0.2641847	
3189.500	0.2667032	
3189.000	0.2692129	
3188.500	0.2717009	
3188.000	0.2741667	
3187.500	0.2766198	
3187.000	0.279073	
3186.500	0.2815358	
3186.000	0.284009	
3185.500	0.2864885	
3185.000	0.2889719	
3184.500	0.2914606	
3184.000	0.2939556	
3183.500	0.2964528	
3183.000	0.2989509	
3182.500	0.3014611	
3182.000	0.3040095	
3181.500	0.3066204	
3181.000	0.3093006	
3180.500	0.3120306	
3180.000	0.3147771	
3179.500	0.3175113	
3179.000	0.3202271	
3178.500	0.3229392	
3178.000	0.3256687	
3177.500	0.328427	
3177.000	0.3312148	
3176.500	0.3340302	
3176.000	0.3368751	
3175.500	0.3397469	
3175.000	0.3426345	
3174.500	0.345524	
3174.000	0.3484137	
3173.500	0.3513175	
3173.000	0.3542536	
3172.500	0.3572355	
3172.000	0.36027	
3171.500	0.3633582	
3171.000	0.3664925	
3170.500	0.3696608	
3170.000	0.3728601	
3169.500	0.3761009	
3169.000	0.379394	
3168.500	0.3827272	
3168.000	0.3860682	
3167.500	0.3893969	
3167.000	0.392726	
3166.500	0.3960927	
3166.000	0.3995241	
3165.500	0.4030156	
3165.000	0.4065359	
3164.500	0.4100545	
3164.000	0.4135616	
3163.500	0.4170696	
3163.000	0.4206008	
3162.500	0.4241735	
3162.000	0.4277979	
3161.500	0.4314792	
3161.000	0.4352249	
3160.500	0.439041	
3160.000	0.4429271	
3159.500	0.4468636	
3159.000	0.4508145	
3158.500	0.4547513	
3158.000	0.4586836	
3157.500	0.4626566	
3157.000	0.4667114	
3156.500	0.4708531	
3156.000	0.4750545	
3155.500	0.4792847	
3155.000	0.4835297	
3154.500	0.48779	
3154.000	0.4920728	
3153.500	0.4963856	
3153.000	0.5007272	
3152.500	0.5050835	
3152.000	0.5094402	
3151.500	0.5137976	
3151.000	0.5181659	
3150.500	0.5225405	
3150.000	0.5268915	
3149.500	0.5311866	
3149.000	0.5354251	
3148.500	0.5396499	
3148.000	0.5439236	
3147.500	0.5482951	
3147.000	0.552775	
3146.500	0.5573459	
3146.000	0.5619885	
3145.500	0.566702	
3145.000	0.5715114	
3144.500	0.5764485	
3144.000	0.5815378	
3143.500	0.5867752	
3143.000	0.5921383	
3142.500	0.5975912	
3142.000	0.6031011	
3141.500	0.6086379	
3141.000	0.6141724	
3140.500	0.6196813	
3140.000	0.6251632	
3139.500	0.6306404	
3139.000	0.6361389	
3138.500	0.6416677	
3138.000	0.6472181	
3137.500	0.6527772	
3137.000	0.6583352	
3136.500	0.6638877	
3136.000	0.6694466	
3135.500	0.6750465	
3135.000	0.6807309	
3134.500	0.6865252	
3134.000	0.6924218	
3133.500	0.6983917	
3133.000	0.704398	
3132.500	0.7104046	
3132.000	0.7163883	
3131.500	0.7223612	
3131.000	0.7283754	
3130.500	0.7345082	
3130.000	0.7408151	
3129.500	0.7473056	
3129.000	0.7539563	
3128.500	0.7607429	
3128.000	0.7676568	
3127.500	0.7746814	
3127.000	0.7817694	
3126.500	0.7888801	
3126.000	0.7960269	
3125.500	0.8032875	
3125.000	0.810727	
3124.500	0.8183435	
3124.000	0.8260817	
3123.500	0.8338897	
3123.000	0.8417475	
3122.500	0.8496526	
3122.000	0.8576355	
3121.500	0.8657505	
3121.000	0.8740292	
3120.500	0.8824254	
3120.000	0.8908536	
3119.500	0.8992811	
3119.000	0.9077523	
3118.500	0.9163127	
3118.000	0.924936	
3117.500	0.9335469	
3117.000	0.9420953	
3116.500	0.9505889	
3116.000	0.9590679	
3115.500	0.9675705	
3115.000	0.9761158	
3114.500	0.984694	
3114.000	0.9932683	
3113.500	1.0018	
3113.000	1.010285	
3112.500	1.018762	
3112.000	1.02726	
3111.500	1.035722	
3111.000	1.043981	
3110.500	1.051852	
3110.000	1.059249	
3109.500	1.066235	
3109.000	1.07295	
3108.500	1.07951	
3108.000	1.086007	
3107.500	1.092527	
3107.000	1.09913	
3106.500	1.105824	
3106.000	1.112622	
3105.500	1.119618	
3105.000	1.12697	
3104.500	1.134775	
3104.000	1.143013	
3103.500	1.151618	
3103.000	1.160568	
3102.500	1.169854	
3102.000	1.179428	
3101.500	1.189148	
3101.000	1.198845	
3100.500	1.20841	
3100.000	1.21787	
3099.500	1.227374	
3099.000	1.237093	
3098.500	1.247113	
3098.000	1.257411	
3097.500	1.267895	
3097.000	1.278466	
3096.500	1.289049	
3096.000	1.299704	
3095.500	1.310671	
3095.000	1.322266	
3094.500	1.334601	
3094.000	1.347483	
3093.500	1.36062	
3093.000	1.373927	
3092.500	1.387579	
3092.000	1.401777	
3091.500	1.416533	
3091.000	1.431682	
3090.500	1.447091	
3090.000	1.462808	
3089.500	1.479044	
3089.000	1.496007	
3088.500	1.513737	
3088.000	1.532081	
3087.500	1.550772	
3087.000	1.569509	
3086.500	1.588083	
3086.000	1.606534	
3085.500	1.625179	
3085.000	1.644509	
3084.500	1.664963	
3084.000	1.686995	
3083.500	1.711111	
3083.000	1.737587	
3082.500	1.766006	
3082.000	1.795442	
3081.500	1.825143	
3081.000	1.855248	
3080.500	1.886787	
3080.000	1.920648	
3079.500	1.956742	
3079.000	1.994384	
3078.500	2.032712	
3078.000	2.070756	
3077.500	2.1076	
3077.000	2.142535	
3076.500	2.175214	
3076.000	2.205704	
3075.500	2.23454	
3075.000	2.262791	
3074.500	2.29174	
3074.000	2.321415	
3073.500	2.350209	
3073.000	2.376341	
3072.500	2.400013	
3072.000	2.423852	
3071.500	2.450154	
3071.000	2.478214	
3070.500	2.505242	
3070.000	2.52856	
3069.500	2.547034	
3069.000	2.561688	
3068.500	2.574458	
3068.000	2.586023	
3067.500	2.595565	
3067.000	2.602104	
3066.500	2.605063	
3066.000	2.604985	
3065.500	2.603665	
3065.000	2.603099	
3064.500	2.603473	
3064.000	2.602857	
3063.500	2.599783	
3063.000	2.595567	
3062.500	2.593158	
3062.000	2.594016	
3061.500	2.595696	
3061.000	2.593638	
3060.500	2.585783	
3060.000	2.574303	
3059.500	2.564011	
3059.000	2.558912	
3058.500	2.55951	
3058.000	2.563541	
3057.500	2.568716	
3057.000	2.573454	
3056.500	2.576962	
3056.000	2.580078	
3055.500	2.584334	
3055.000	2.589943	
3054.500	2.59556	
3054.000	2.600597	
3053.500	2.606924	
3053.000	2.616513	
3052.500	2.62823	
3052.000	2.638594	
3051.500	2.644657	
3051.000	2.646177	
3050.500	2.645478	
3050.000	2.645146	
3049.500	2.645969	
3049.000	2.645911	
3048.500	2.641995	
3048.000	2.633646	
3047.500	2.623579	
3047.000	2.614558	
3046.500	2.606597	
3046.000	2.598066	
3045.500	2.587563	
3045.000	2.574324	
3044.500	2.558107	
3044.000	2.53923	
3043.500	2.517706	
3043.000	2.491495	
3042.500	2.45738	
3042.000	2.413595	
3041.500	2.360981	
3041.000	2.301871	
3040.500	2.238113	
3040.000	2.170239	
3039.500	2.098421	
3039.000	2.023648	
3038.500	1.948595	
3038.000	1.877402	
3037.500	1.813634	
3037.000	1.757656	
3036.500	1.706523	
3036.000	1.658228	
3035.500	1.612662	
3035.000	1.570393	
3034.500	1.531312	
3034.000	1.49481	
3033.500	1.460387	
3033.000	1.427759	
3032.500	1.396801	
3032.000	1.367604	
3031.500	1.340349	
3031.000	1.315358	
3030.500	1.292802	
3030.000	1.272585	
3029.500	1.25433	
3029.000	1.23767	
3028.500	1.222364	
3028.000	1.208318	
3027.500	1.19544	
3027.000	1.183657	
3026.500	1.172968	
3026.000	1.163452	
3025.500	1.155186	
3025.000	1.1481	
3024.500	1.141998	
3024.000	1.13668	
3023.500	1.132102	
3023.000	1.128333	
3022.500	1.125383	
3022.000	1.123185	
3021.500	1.121634	
3021.000	1.120683	
3020.500	1.12038	
3020.000	1.120802	
3019.500	1.121972	
3019.000	1.123852	
3018.500	1.126311	
3018.000	1.129267	
3017.500	1.13271	
3017.000	1.136764	
3016.500	1.141577	
3016.000	1.147249	
3015.500	1.153825	
3015.000	1.161284	
3014.500	1.169657	
3014.000	1.178941	
3013.500	1.189079	
3013.000	1.199916	
3012.500	1.211322	
3012.000	1.223319	
3011.500	1.236085	
3011.000	1.249775	
3010.500	1.264467	
3010.000	1.280093	
3009.500	1.296526	
3009.000	1.313548	
3008.500	1.33098	
3008.000	1.348882	
3007.500	1.36763	
3007.000	1.387777	
3006.500	1.409536	
3006.000	1.432784	
3005.500	1.457151	
3005.000	1.482422	
3004.500	1.508607	
3004.000	1.536008	
3003.500	1.565132	
3003.000	1.596675	
3002.500	1.631327	
3002.000	1.669822	
3001.500	1.712513	
3001.000	1.759243	
3000.500	1.809428	
3000.000	1.862251	
2999.500	1.918354	
2999.000	1.978691	
2998.500	2.043814	
2998.000	2.113346	
2997.500	2.191872	
2997.000	2.289231	
2996.500	2.404097	
2996.000	2.524417	
2995.500	2.640207	
2995.000	2.745083	
2994.500	2.833903	
2994.000	2.903347	
2993.500	2.954069	
2993.000	2.990973	
2992.500	3.016303	
2992.000	3.026669	
2991.500	3.019753	
2991.000	2.998008	
2990.500	2.966308	
2990.000	2.927261	
2989.500	2.882564	
2989.000	2.834814	
2988.500	2.788651	
2988.000	2.752098	
2987.500	2.739074	
2987.000	2.751921	
2986.500	2.775193	
2986.000	2.795412	
2985.500	2.810489	
2985.000	2.822301	
2984.500	2.831035	
2984.000	2.838152	
2983.500	2.847584	
2983.000	2.859123	
2982.500	2.865814	
2982.000	2.860697	
2981.500	2.843725	
2981.000	2.81799	
2980.500	2.783359	
2980.000	2.736054	
2979.500	2.674493	
2979.000	2.601423	
2978.500	2.521662	
2978.000	2.440434	
2977.500	2.361044	
2977.000	2.280238	
2976.500	2.196585	
2976.000	2.11259	
2975.500	2.032111	
2975.000	1.958163	
2974.500	1.890523	
2974.000	1.829265	
2973.500	1.773897	
2973.000	1.722065	
2972.500	1.672013	
2972.000	1.623852	
2971.500	1.578094	
2971.000	1.534643	
2970.500	1.492662	
2970.000	1.451409	
2969.500	1.410771	
2969.000	1.371191	
2968.500	1.333173	
2968.000	1.297081	
2967.500	1.263064	
2967.000	1.231015	
2966.500	1.200557	
2966.000	1.171303	
2965.500	1.143003	
2965.000	1.115636	
2964.500	1.089193	
2964.000	1.06368	
2963.500	1.039122	
2963.000	1.015536	
2962.500	0.9929102	
2962.000	0.9712098	
2961.500	0.950376	
2961.000	0.9303118	
2960.500	0.9108376	
2960.000	0.8918109	
2959.500	0.8732323	
2959.000	0.8552199	
2958.500	0.8378774	
2958.000	0.8212065	
2957.500	0.8051106	
2957.000	0.7894769	
2956.500	0.7742196	
2956.000	0.7593254	
2955.500	0.7448217	
2955.000	0.7307107	
2954.500	0.7169438	
2954.000	0.7034515	
2953.500	0.6902241	
2953.000	0.6773077	
2952.500	0.6647533	
2952.000	0.6525681	
2951.500	0.6407332	
2951.000	0.6292255	
2950.500	0.6180211	
2950.000	0.6070968	
2949.500	0.5964477	
2949.000	0.5860836	
2948.500	0.5759947	
2948.000	0.5661437	
2947.500	0.5564847	
2947.000	0.5470025	
2946.500	0.5377109	
2946.000	0.5286211	
2945.500	0.5197354	
2945.000	0.5110412	
2944.500	0.5025274	
2944.000	0.4941897	
2943.500	0.4860359	
2943.000	0.478092	
2942.500	0.4703755	
2942.000	0.4628819	
2941.500	0.4555846	
2941.000	0.4484539	
2940.500	0.4414662	
2940.000	0.4346006	
2939.500	0.4278374	
2939.000	0.4211653	
2938.500	0.4145796	
2938.000	0.4080874	
2937.500	0.4017014	
2937.000	0.3954417	
2936.500	0.3893195	
2936.000	0.3833406	
2935.500	0.3775044	
2935.000	0.3718045	
2934.500	0.3662272	
2934.000	0.3607577	
2933.500	0.3553882	
2933.000	0.3501212	
2932.500	0.3449591	
2932.000	0.3398935	
2931.500	0.3349065	
2931.000	0.3299851	
2930.500	0.325129	
2930.000	0.3203511	
2929.500	0.3156615	
2929.000	0.3110636	
2928.500	0.3065512	
2928.000	0.3021176	
2927.500	0.2977642	
2927.000	0.2935024	
2926.500	0.2893448	
2926.000	0.2852901	
2925.500	0.2813286	
2925.000	0.2774484	
2924.500	0.2736449	
2924.000	0.2699221	
2923.500	0.2662855	
2923.000	0.2627391	
2922.500	0.2592859	
2922.000	0.2559302	
2921.500	0.252675	
2921.000	0.2495206	
2920.500	0.2464631	
2920.000	0.2434938	
2919.500	0.2405972	
2919.000	0.2377572	
2918.500	0.2349617	
2918.000	0.2322057	
2917.500	0.229496	
2917.000	0.2268442	
2916.500	0.2242531	
2916.000	0.2217174	
2915.500	0.2192277	
2915.000	0.2167831	
2914.500	0.2143913	
2914.000	0.2120641	
2913.500	0.2098105	
2913.000	0.2076359	
2912.500	0.205534	
2912.000	0.2034918	
2911.500	0.2014979	
2911.000	0.1995512	
2910.500	0.1976578	
2910.000	0.1958219	
2909.500	0.1940373	
2909.000	0.1922944	
2908.500	0.1905887	
2908.000	0.1889269	
2907.500	0.1873198	
2907.000	0.1857758	
2906.500	0.1842918	
2906.000	0.1828558	
2905.500	0.1814558	
2905.000	0.1800915	
2904.500	0.1787707	
2904.000	0.1775041	
2903.500	0.1762949	
2903.000	0.175134	
2902.500	0.1740038	
2902.000	0.1728901	
2901.500	0.1717909	
2901.000	0.1707142	
2900.500	0.1696643	
2900.000	0.1686333	
2899.500	0.167607	
2899.000	0.1665796	
2898.500	0.1655589	
2898.000	0.1645553	
2897.500	0.1635701	
2897.000	0.1625935	
2896.500	0.1616114	
2896.000	0.160612	
2895.500	0.1595896	
2895.000	0.158545	
2894.500	0.157485	
2894.000	0.1564173	
2893.500	0.1553463	
2893.000	0.1542713	
2892.500	0.1531901	
2892.000	0.1521023	
2891.500	0.1510118	
2891.000	0.1499273	
2890.500	0.1488601	
2890.000	0.1478211	
2889.500	0.1468156	
2889.000	0.1458424	
2888.500	0.1448953	
2888.000	0.1439676	
2887.500	0.1430568	
2887.000	0.1421647	
2886.500	0.1412948	
2886.000	0.1404492	
2885.500	0.1396279	
2885.000	0.1388296	
2884.500	0.1380524	
2884.000	0.1372893	
2883.500	0.1365255	
2883.000	0.1357414	
2882.500	0.134923	
2882.000	0.1340723	
2881.500	0.1332092	
2881.000	0.1323608	
2880.500	0.131546	
2880.000	0.1307658	
2879.500	0.1300069	
2879.000	0.1292533	
2878.500	0.1284979	
2878.000	0.1277429	
2877.500	0.1269944	
2877.000	0.1262587	
2876.500	0.1255424	
2876.000	0.1248529	
2875.500	0.1241923	
2875.000	0.1235536	
2874.500	0.1229223	
2874.000	0.1222869	
2873.500	0.1216456	
2873.000	0.121006	
2872.500	0.1203809	
2872.000	0.1197829	
2871.500	0.1192184	
2871.000	0.1186841	
2870.500	0.1181671	
2870.000	0.1176552	
2869.500	0.1171459	
2869.000	0.116647	
2868.500	0.1161713	
2868.000	0.1157303	
2867.500	0.1153315	
2867.000	0.1149795	
2866.500	0.1146734	
2866.000	0.1144026	
2865.500	0.1141492	
2865.000	0.1138954	
2864.500	0.1136373	
2864.000	0.113387	
2863.500	0.1131608	
2863.000	0.1129674	
2862.500	0.1128056	
2862.000	0.112674	
2861.500	0.1125755	
2861.000	0.1125126	
2860.500	0.1124808	
2860.000	0.1124726	
2859.500	0.1124832	
2859.000	0.112513	
2858.500	0.112563	
2858.000	0.1126333	
2857.500	0.1127243	
2857.000	0.1128367	
2856.500	0.1129677	
2856.000	0.1131095	
2855.500	0.1132547	
2855.000	0.1134012	
2854.500	0.1135561	
2854.000	0.1137322	
2853.500	0.1139451	
2853.000	0.1142098	
2852.500	0.1145404	
2852.000	0.1149489	
2851.500	0.1154435	
2851.000	0.1160246	
2850.500	0.1166859	
2850.000	0.1174227	
2849.500	0.1182427	
2849.000	0.1191607	
2848.500	0.1201882	
2848.000	0.121332	
2847.500	0.1225947	
2847.000	0.1239841	
2846.500	0.1255069	
2846.000	0.1271719	
2845.500	0.1289855	
2845.000	0.1309624	
2844.500	0.1331251	
2844.000	0.1355018	
2843.500	0.1381162	
2843.000	0.1409975	
2842.500	0.1441636	
2842.000	0.1476369	
2841.500	0.1514339	
2841.000	0.1555746	
2840.500	0.1600761	
2840.000	0.1649708	
2839.500	0.170277	
2839.000	0.1760155	
2838.500	0.1821925	
2838.000	0.1887948	
2837.500	0.1957849	
2837.000	0.2031067	
2836.500	0.2106758	
2836.000	0.2183866	
2835.500	0.2261124	
2835.000	0.2336935	
2834.500	0.2409476	
2834.000	0.2476634	
2833.500	0.2536464	
2833.000	0.2587089	
2832.500	0.2626977	
2832.000	0.2654705	
2831.500	0.2669272	
2831.000	0.26701	
2830.500	0.2656905	
2830.000	0.2630238	
2829.500	0.2590956	
2829.000	0.2540479	
2828.500	0.2480538	
2828.000	0.2412883	
2827.500	0.233933	
2827.000	0.2261636	
2826.500	0.2181513	
2826.000	0.2100424	
2825.500	0.2019596	
2825.000	0.1939967	
2824.500	0.186221	
2824.000	0.1786881	
2823.500	0.1714495	
2823.000	0.164546	
2822.500	0.1579961	
2822.000	0.151797	
2821.500	0.1459289	
2821.000	0.1403747	
2820.500	0.1351178	
2820.000	0.1301456	
2819.500	0.1254429	
2819.000	0.1209991	
2818.500	0.1168068	
2818.000	0.1128536	
2817.500	0.1091223	
2817.000	0.1055958	
2816.500	0.1022587	
2816.000	0.09910608	
2815.500	0.09613417	
2815.000	0.09333122	
2814.500	0.09068109	
2814.000	0.08816467	
2813.500	0.08577262	
2813.000	0.08350077	
2812.500	0.08134506	
2812.000	0.07929674	
2811.500	0.07734421	
2811.000	0.07547963	
2810.500	0.07369137	
2810.000	0.0719678	
2809.500	0.07030084	
2809.000	0.06868699	
2808.500	0.06712961	
2808.000	0.06563122	
2807.500	0.06419085	
2807.000	0.06280564	
2806.500	0.06147021	
2806.000	0.06017629	
2805.500	0.05891263	
2805.000	0.05766855	
2804.500	0.05643975	
2804.000	0.0552298	
2803.500	0.05405	
2803.000	0.05291031	
2802.500	0.05181303	
2802.000	0.05075192	
2801.500	0.04971769	
2801.000	0.04870358	
2800.500	0.04770436	
2800.000	0.04672052	
2799.500	0.04575974	
2799.000	0.04483765	
2798.500	0.04396771	
2798.000	0.04315282	
2797.500	0.04238083	
2797.000	0.04163248	
2796.500	0.04088872	
2796.000	0.04013696	
2795.500	0.039373	
2795.000	0.03860192	
2794.500	0.03783547	
2794.000	0.03708654	
2793.500	0.03636257	
2793.000	0.03566329	
2792.500	0.03498462	
2792.000	0.03432454	
2791.500	0.03368534	
2791.000	0.0330713	
2790.500	0.03248569	
2790.000	0.03193207	
2789.500	0.0314158	
2789.000	0.03093754	
2788.500	0.03048961	
2788.000	0.03005639	
2787.500	0.02962295	
2787.000	0.0291819	
2786.500	0.0287334	
2786.000	0.02828207	
2785.500	0.02783442	
2785.000	0.02739616	
2784.500	0.02696832	
2784.000	0.0265452	
2783.500	0.02611876	
2783.000	0.02568521	
2782.500	0.02524821	
2782.000	0.02481623	
2781.500	0.02439678	
2781.000	0.02399298	
2780.500	0.02360276	
2780.000	0.02322044	
2779.500	0.0228386	
2779.000	0.02244947	
2778.500	0.02204713	
2778.000	0.02163123	
2777.500	0.02120909	
2777.000	0.02079303	
2776.500	0.02039309	
2776.000	0.02001294	
2775.500	0.01965095	
2775.000	0.01930476	
2774.500	0.01897347	
2774.000	0.01865739	
2773.500	0.01835554	
2773.000	0.01806662	
2772.500	0.01779053	
2772.000	0.01753087	
2771.500	0.01729286	
2771.000	0.01707819	
2770.500	0.01688128	
2770.000	0.01669291	
2769.500	0.01650728	
2769.000	0.01632459	
2768.500	0.01614695	
2768.000	0.015974	
2767.500	0.01580219	
2767.000	0.01562709	
2766.500	0.01544613	
2766.000	0.01526188	
2765.500	0.01508329	
2765.000	0.01492109	
2764.500	0.01477876	
2764.000	0.0146505	
2763.500	0.01452883	
2763.000	0.01441332	
2762.500	0.01430987	
2762.000	0.01422275	
2761.500	0.01415043	
2761.000	0.0140886	
2760.500	0.01403337	
2760.000	0.0139817	
2759.500	0.01393074	
2759.000	0.01387842	
2758.500	0.01382352	
2758.000	0.01376448	
2757.500	0.01369949	
2757.000	0.01362964	
2756.500	0.01356191	
2756.000	0.01350775	
2755.500	0.01347657	
2755.000	0.01346885	
2754.500	0.0134764	
2754.000	0.01348941	
2753.500	0.01350615	
2753.000	0.0135326	
2752.500	0.013575	
2752.000	0.01363298	
2751.500	0.01370256	
2751.000	0.01378401	
2750.500	0.01388377	
2750.000	0.01400913	
2749.500	0.01416229	
2749.000	0.0143386	
2748.500	0.01452781	
2748.000	0.01471779	
2747.500	0.01490076	
2747.000	0.01507931	
2746.500	0.01526611	
2746.000	0.01547481	
2745.500	0.01570917	
2745.000	0.01596072	
2744.500	0.0162173	
2744.000	0.01647479	
2743.500	0.01674012	
2743.000	0.01702342	
2742.500	0.01732781	
2742.000	0.01765013	
2741.500	0.01798846	
2741.000	0.01834858	
2740.500	0.01873816	
2740.000	0.01915873	
2739.500	0.01960352	
2739.000	0.02006371	
2738.500	0.02053352	
2738.000	0.02101062	
2737.500	0.02149529	
2737.000	0.02199101	
2736.500	0.02250199	
2736.000	0.02302937	
2735.500	0.02356915	
2735.000	0.02411751	
2734.500	0.02467718	
2734.000	0.02525697	
2733.500	0.02586454	
2733.000	0.02649986	
2732.500	0.02715511	
2732.000	0.02781963	
2731.500	0.02848582	
2731.000	0.0291505	
2730.500	0.02981222	
2730.000	0.03046862	
2729.500	0.03111709	
2729.000	0.03175669	
2728.500	0.03238513	
2728.000	0.03299536	
2727.500	0.03357571	
2727.000	0.03411855	
2726.500	0.0346243	
2726.000	0.03509976	
2725.500	0.03554809	
2725.000	0.03596998	
2724.500	0.03636551	
2724.000	0.03673889	
2723.500	0.03709437	
2723.000	0.0374344	
2722.500	0.0377591	
2722.000	0.0380699	
2721.500	0.0383692	
2721.000	0.03865985	
2720.500	0.03894458	
2720.000	0.03922767	
2719.500	0.03951532	
2719.000	0.03981273	
2718.500	0.04012061	
2718.000	0.04043568	
2717.500	0.04075706	
2717.000	0.04109103	
2716.500	0.04144953	
2716.000	0.04184128	
2715.500	0.04226756	
2715.000	0.04272352	
2714.500	0.04320614	
2714.000	0.04371426	
2713.500	0.0442484	
2713.000	0.0448093	
2712.500	0.04540241	
2712.000	0.04603608	
2711.500	0.04671968	
2711.000	0.04745953	
2710.500	0.04826531	
2710.000	0.04914841	
2709.500	0.05012256	
2709.000	0.05119385	
2708.500	0.05236637	
2708.000	0.05363887	
2707.500	0.05501761	
2707.000	0.05650573	
2706.500	0.05811466	
2706.000	0.05985107	
2705.500	0.06172887	
2705.000	0.06375412	
2704.500	0.06593223	
2704.000	0.06826483	
2703.500	0.07076648	
2703.000	0.07345857	
2702.500	0.07636828	
2702.000	0.07951702	
2701.500	0.08292247	
2701.000	0.08659864	
2700.500	0.09058368	
2700.000	0.09492919	
2699.500	0.09971599	
2699.000	0.1050225	
2698.500	0.1109291	
2698.000	0.117513	
2697.500	0.1248743	
2697.000	0.1331235	
2696.500	0.142427	
2696.000	0.1529956	
2695.500	0.1650561	
2695.000	0.1788788	
2694.500	0.1948299	
2694.000	0.2132989	
2693.500	0.2348457	
2693.000	0.2600558	
2692.500	0.2896649	
2692.000	0.3242888	
2691.500	0.3645203	
2691.000	0.4105427	
2690.500	0.4619891	
2690.000	0.5176499	
2689.500	0.5755301	
2689.000	0.6330791	
2688.500	0.687461	
2688.000	0.7359072	
2687.500	0.7758196	
2687.000	0.8052297	
2686.500	0.8224017	
2686.000	0.8266352	
2685.500	0.8174859	
2685.000	0.7955987	
2684.500	0.7619559	
2684.000	0.7183247	
2683.500	0.6669414	
2683.000	0.6105515	
2682.500	0.5519911	
2682.000	0.4940649	
2681.500	0.4391685	
2681.000	0.3890597	
2680.500	0.3447173	
2680.000	0.3062615	
2679.500	0.2733845	
2679.000	0.2454306	
2678.500	0.2217626	
2678.000	0.2016347	
2677.500	0.184476	
2677.000	0.1697309	
2676.500	0.1569693	
2676.000	0.1458091	
2675.500	0.1359702	
2675.000	0.1272019	
2674.500	0.1193075	
2674.000	0.1121357	
2673.500	0.1055733	
2673.000	0.09950923	
2672.500	0.09385176	
2672.000	0.08853013	
2671.500	0.08349327	
2671.000	0.07870856	
2670.500	0.07416019	
2670.000	0.06983886	
2669.500	0.06574105	
2669.000	0.06187289	
2668.500	0.05823974	
2668.000	0.05483987	
2667.500	0.05166711	
2667.000	0.04871622	
2666.500	0.04597995	
2666.000	0.04345282	
2665.500	0.04111865	
2665.000	0.03896813	
2664.500	0.03698741	
2664.000	0.0351666	
2663.500	0.03349197	
2663.000	0.03195018	
2662.500	0.03052318	
2662.000	0.02919567	
2661.500	0.02795616	
2661.000	0.02679777	
2660.500	0.02571528	
2660.000	0.02470506	
2659.500	0.02376321	
2659.000	0.02288726	
2658.500	0.02207122	
2658.000	0.02130689	
2657.500	0.02058518	
2657.000	0.01990268	
2656.500	0.01925814	
2656.000	0.01865009	
2655.500	0.0180757	
2655.000	0.01753241	
2654.500	0.01701714	
2654.000	0.0165259	
2653.500	0.01605555	
2653.000	0.01560581	
2652.500	0.01517742	
2652.000	0.01477092	
2651.500	0.01438562	
2651.000	0.01402204	
2650.500	0.01368151	
2650.000	0.01336583	
2649.500	0.0130742	
2649.000	0.01280126	
2648.500	0.01253578	
2648.000	0.01226573	
2647.500	0.01198709	
2647.000	0.01170794	
2646.500	0.01144218	
2646.000	0.01119951	
2645.500	0.01098071	
2645.000	0.01078001	
2644.500	0.01058883	
2644.000	0.01039818	
2643.500	0.01020204	
2643.000	0.00999952	
2642.500	0.009794138	
2642.000	0.009591114	
2641.500	0.009396167	
2641.000	0.009216004	
2640.500	0.009055991	
2640.000	0.008916049	
2639.500	0.008788721	
2639.000	0.008663676	
2638.500	0.008533919	
2638.000	0.00840052	
2637.500	0.008272611	
2637.000	0.008162815	
2636.500	0.008080467	
2636.000	0.008026385	
2635.500	0.007993388	
2635.000	0.007970777	
2634.500	0.007949404	
2634.000	0.007925056	
2633.500	0.007898972	
2633.000	0.007874771	
2632.500	0.007853761	
2632.000	0.007833629	
2631.500	0.007812398	
2631.000	0.007791644	
2630.500	0.007773146	
2630.000	0.007753143	
2629.500	0.00772326	
2629.000	0.007678116	
2628.500	0.007620901	
2628.000	0.007560809	
2627.500	0.007506465	
2627.000	0.007461913	
2626.500	0.007426604	
2626.000	0.007397963	
2625.500	0.007374607	
2625.000	0.007358295	
2624.500	0.00735232	
2624.000	0.007358892	
2623.500	0.007378047	
2623.000	0.007410125	
2622.500	0.007456879	
2622.000	0.007519678	
2621.500	0.00759676	
2621.000	0.007682197	
2620.500	0.007766376	
2620.000	0.007839254	
2619.500	0.007896103	
2619.000	0.007941746	
2618.500	0.007987278	
2618.000	0.008040535	
2617.500	0.008100044	
2617.000	0.008158996	
2616.500	0.008214082	
2616.000	0.00826892	
2615.500	0.008329399	
2615.000	0.008397697	
2614.500	0.00847159	
2614.000	0.008548869	
2613.500	0.008630381	
2613.000	0.008718673	
2612.500	0.00881387	
2612.000	0.008912491	
2611.500	0.009010324	
2611.000	0.009106519	
2610.500	0.009204887	
2610.000	0.009313179	
2609.500	0.009440218	
2609.000	0.009590617	
2608.500	0.009759114	
2608.000	0.009931468	
2607.500	0.01009476	
2607.000	0.01024827	
2606.500	0.01040316	
2606.000	0.01057131	
2605.500	0.01075693	
2605.000	0.01095803	
2604.500	0.01117182	
2604.000	0.01139569	
2603.500	0.01162514	
2603.000	0.01185437	
2602.500	0.01207851	
2602.000	0.0122944	
2601.500	0.01250053	
2601.000	0.01269935	
2600.500	0.01289968	
2600.000	0.01311359	
2599.500	0.01334788	
2599.000	0.01359952	
2598.500	0.0138601	
2598.000	0.01412586	
2597.500	0.01440186	
2597.000	0.01469661	
2596.500	0.01501311	
2596.000	0.01534643	
2595.500	0.0156892	
2595.000	0.01603786	
2594.500	0.01639336	
2594.000	0.01675752	
2593.500	0.01712978	
2593.000	0.01750585	
2592.500	0.0178773	
2592.000	0.01823378	
2591.500	0.0185693	
2591.000	0.01888711	
2590.500	0.019196	
2590.000	0.01950052	
2589.500	0.0197969	
2589.000	0.02007922	
2588.500	0.02034753	
2588.000	0.02060765	
2587.500	0.02086481	
2587.000	0.02111897	
2586.500	0.02136541	
2586.000	0.02159744	
2585.500	0.02180999	
2585.000	0.02200266	
2584.500	0.02218077	
2584.000	0.02235129	
2583.500	0.02251732	
2583.000	0.02267745	
2582.500	0.02283099	
2582.000	0.02298251	
2581.500	0.02314088	
2581.000	0.02331376	
2580.500	0.02350257	
2580.000	0.02370139	
2579.500	0.0239002	
2579.000	0.02409086	
2578.500	0.02427151	
2578.000	0.02444633	
2577.500	0.024621	
2577.000	0.02479806	
2576.500	0.02497547	
2576.000	0.02514874	
2575.500	0.0253147	
2575.000	0.02547362	
2574.500	0.02562832	
2574.000	0.02578048	
2573.500	0.02592862	
2573.000	0.02606938	
2572.500	0.02620023	
2572.000	0.0263208	
2571.500	0.02643296	
2571.000	0.02654058	
2570.500	0.02664827	
2570.000	0.02675808	
2569.500	0.02686733	
2569.000	0.02697129	
2568.500	0.02706901	
2568.000	0.02716547	
2567.500	0.0272672	
2567.000	0.02737676	
2566.500	0.02749213	
2566.000	0.02761098	
2565.500	0.02773362	
2565.000	0.02786246	
2564.500	0.02799964	
2564.000	0.02814608	
2563.500	0.02830166	
2563.000	0.02846714	
2562.500	0.02864587	
2562.000	0.02884494	
2561.500	0.02907293	
2561.000	0.02933518	
2560.500	0.02963044	
2560.000	0.02995203	
2559.500	0.03029336	
2559.000	0.03065271	
2558.500	0.03103319	
2558.000	0.03143992	
2557.500	0.0318762	
2557.000	0.03234234	
2556.500	0.03283408	
2556.000	0.0333432	
2555.500	0.03385996	
2555.000	0.03437933	
2554.500	0.0349049	
2554.000	0.03544757	
2553.500	0.03602111	
2553.000	0.03663635	
2552.500	0.03729868	
2552.000	0.03800733	
2551.500	0.03875768	
2551.000	0.03954439	
2550.500	0.04036661	
2550.000	0.04122803	
2549.500	0.04213294	
2549.000	0.04308322	
2548.500	0.04407693	
2548.000	0.04511565	
2547.500	0.04620751	
2547.000	0.04736361	
2546.500	0.04858959	
2546.000	0.049886	
2545.500	0.05125305	
2545.000	0.05269572	
2544.500	0.05422068	
2544.000	0.0558337	
2543.500	0.05753527	
2543.000	0.05932389	
2542.500	0.06119591	
2542.000	0.06315107	
2541.500	0.065196	
2541.000	0.06734542	
2540.500	0.06961257	
2540.000	0.07200287	
2539.500	0.07451323	
2539.000	0.07714265	
2538.500	0.07989387	
2538.000	0.08277985	
2537.500	0.08581547	
2537.000	0.08901583	
2536.500	0.09239157	
2536.000	0.09595138	
2535.500	0.09970323	
2535.000	0.103662	
2534.500	0.1078387	
2534.000	0.1122446	
2533.500	0.1168821	
2533.000	0.1217646	
2532.500	0.1269118	
2532.000	0.132355	
2531.500	0.138119	
2531.000	0.1442275	
2530.500	0.1507008	
2530.000	0.1575609	
2529.500	0.1648226	
2529.000	0.1724988	
2528.500	0.1805864	
2528.000	0.1890641	
2527.500	0.1978791	
2527.000	0.2069438	
2526.500	0.2161377	
2526.000	0.2253114	
2525.500	0.2342872	
2525.000	0.2428427	
2524.500	0.2507249	
2524.000	0.2576408	
2523.500	0.2633245	
2523.000	0.2675432	
2522.500	0.2701214	
2522.000	0.270924	
2521.500	0.2698747	
2521.000	0.2669444	
2520.500	0.262204	
2520.000	0.2557796	
2519.500	0.2478507	
2519.000	0.2386509	
2518.500	0.2284576	
2518.000	0.2175633	
2517.500	0.2062607	
2517.000	0.1948208	
2516.500	0.1834896	
2516.000	0.1724795	
2515.500	0.1619476	
2515.000	0.1519913	
2514.500	0.1426528	
2514.000	0.1339495	
2513.500	0.1258856	
2513.000	0.1184575	
2512.500	0.1116411	
2512.000	0.1053987	
2511.500	0.09968424	
2511.000	0.0944488	
2510.500	0.08964951	
2510.000	0.08524333	
2509.500	0.08119673	
2509.000	0.07748914	
2508.500	0.07410365	
2508.000	0.07101314	
2507.500	0.0681785	
2507.000	0.06556477	
2506.500	0.06315176	
2506.000	0.06093073	
2505.500	0.05889229	
2505.000	0.05702005	
2504.500	0.05529351	
2504.000	0.05369664	
2503.500	0.05221288	
2503.000	0.05082342	
2502.500	0.04950806	
2502.000	0.04825058	
2501.500	0.04704203	
2501.000	0.04588282	
2500.500	0.04477814	
2500.000	0.04373579	
2499.500	0.04276095	
2499.000	0.04185333	
2498.500	0.04100523	
2498.000	0.04020259	
2497.500	0.03943297	
2497.000	0.03869417	
2496.500	0.03799446	
2496.000	0.03734581	
2495.500	0.03675233	
2495.000	0.03620848	
2494.500	0.03570366	
2494.000	0.03523023	
2493.500	0.0347847	
2493.000	0.03436567	
2492.500	0.03396958	
2492.000	0.03359089	
2491.500	0.03322558	
2491.000	0.03287384	
2490.500	0.03253943	
2490.000	0.0322254	
2489.500	0.03193301	
2489.000	0.03166334	
2488.500	0.0314188	
2488.000	0.03120176	
2487.500	0.03101229	
2487.000	0.03085054	
2486.500	0.03071742	
2486.000	0.03061244	
2485.500	0.03053085	
2485.000	0.03046622	
2484.500	0.03041618	
2484.000	0.03038401	
2483.500	0.03037156	
2483.000	0.03037363	
2482.500	0.03037995	
2482.000	0.03038284	
2481.500	0.0303816	
2481.000	0.0303807	
2480.500	0.03038456	
2480.000	0.0303943	
2479.500	0.03040829	
2479.000	0.03042487	
2478.500	0.03044405	
2478.000	0.03046765	
2477.500	0.03049832	
2477.000	0.03053961	
2476.500	0.03059531	
2476.000	0.03066871	
2475.500	0.03076203	
2475.000	0.03087652	
2474.500	0.03101128	
2474.000	0.03116197	
2473.500	0.03132161	
2473.000	0.03148486	
2472.500	0.03164994	
2472.000	0.03181631	
2471.500	0.03198221	
2471.000	0.03214789	
2470.500	0.03231935	
2470.000	0.03250501	
2469.500	0.03270721	
2469.000	0.03291948	
2468.500	0.03313322	
2468.000	0.03334501	
2467.500	0.03355679	
2467.000	0.03377184	
2466.500	0.03399255	
2466.000	0.03422135	
2465.500	0.03446112	
2465.000	0.03471496	
2464.500	0.0349867	
2464.000	0.03528062	
2463.500	0.03559857	
2463.000	0.03593775	
2462.500	0.03629135	
2462.000	0.03665334	
2461.500	0.03702203	
2461.000	0.03740099	
2460.500	0.03779522	
2460.000	0.03820582	
2459.500	0.03862716	
2459.000	0.03905	
2458.500	0.0394685	
2458.000	0.03988453	
2457.500	0.0403051	
2457.000	0.04073663	
2456.500	0.04118184	
2456.000	0.04164052	
2455.500	0.04211127	
2455.000	0.04259298	
2454.500	0.04308638	
2454.000	0.04359647	
2453.500	0.04413106	
2453.000	0.04469738	
2452.500	0.04529702	
2452.000	0.0459245	
2451.500	0.04657063	
2451.000	0.04722926	
2450.500	0.04790115	
2450.000	0.04859129	
2449.500	0.04930282	
2449.000	0.05003614	
2448.500	0.05079195	
2448.000	0.05157392	
2447.500	0.05238623	
2447.000	0.0532308	
2446.500	0.05410867	
2446.000	0.05502468	
2445.500	0.05598536	
2445.000	0.05699356	
2444.500	0.05804634	
2444.000	0.05913856	
2443.500	0.06026722	
2443.000	0.061431	
2442.500	0.06262831	
2442.000	0.06386047	
2441.500	0.06513524	
2441.000	0.06646695	
2440.500	0.06786882	
2440.000	0.06934665	
2439.500	0.07089877	
2439.000	0.07252018	
2438.500	0.07420463	
2438.000	0.07594799	
2437.500	0.07775266	
2437.000	0.07963366	
2436.500	0.08161547	
2436.000	0.08372054	
2435.500	0.08595653	
2435.000	0.08831869	
2434.500	0.09079852	
2434.000	0.09339592	
2433.500	0.09612099	
2433.000	0.09899126	
2432.500	0.10202	
2432.000	0.1052151	
2431.500	0.1085795	
2431.000	0.1121225	
2430.500	0.1158638	
2430.000	0.1198284	
2429.500	0.1240368	
2429.000	0.128501	
2428.500	0.1332257	
2428.000	0.1382206	
2427.500	0.1435056	
2427.000	0.1491119	
2426.500	0.1550687	
2426.000	0.1613935	
2425.500	0.1680936	
2425.000	0.1751908	
2424.500	0.182727	
2424.000	0.1907608	
2423.500	0.1993397	
2423.000	0.2084932	
2422.500	0.2182376	
2422.000	0.2286085	
2421.500	0.239656	
2421.000	0.251455	
2420.500	0.2640698	
2420.000	0.277542	
2419.500	0.2918686	
2419.000	0.3070307	
2418.500	0.3230225	
2418.000	0.339849	
2417.500	0.3574983	
2417.000	0.3758993	
2416.500	0.3949033	
2416.000	0.4142834	
2415.500	0.4337447	
2415.000	0.4529297	
2414.500	0.4714295	
2414.000	0.4887721	
2413.500	0.5044488	
2413.000	0.5179351	
2412.500	0.5288013	
2412.000	0.5366436	
2411.500	0.5411663	
2411.000	0.5421414	
2410.500	0.5394337	
2410.000	0.533013	
2409.500	0.5230169	
2409.000	0.5096922	
2408.500	0.493474	
2408.000	0.4748427	
2407.500	0.4543442	
2407.000	0.4325259	
2406.500	0.409914	
2406.000	0.3870127	
2405.500	0.3642753	
2405.000	0.3420883	
2404.500	0.3207535	
2404.000	0.3004946	
2403.500	0.2814535	
2403.000	0.2637299	
2402.500	0.2473749	
2402.000	0.2323867	
2401.500	0.2187059	
2401.000	0.2062483	
2400.500	0.1949098	
2400.000	0.1846015	
2399.500	0.1752243	
2399.000	0.1666992	
2398.500	0.158939	
2398.000	0.1518761	
2397.500	0.1454484	
2397.000	0.1395967	
2396.500	0.1342475	
2396.000	0.1294152	
2395.500	0.1250889	
2395.000	0.121111	
2394.500	0.1174617	
2394.000	0.1140879	
2393.500	0.1109634	
2393.000	0.1080625	
2392.500	0.1053749	
2392.000	0.1028872	
2391.500	0.1005806	
2391.000	0.09843223	
2390.500	0.09642241	
2390.000	0.09453924	
2389.500	0.09277914	
2389.000	0.09115112	
2388.500	0.08965942	
2388.000	0.08831932	
2387.500	0.08714937	
2387.000	0.08616007	
2386.500	0.08536087	
2386.000	0.08478414	
2385.500	0.08436817	
2385.000	0.08402079	
2384.500	0.08382825	
2384.000	0.08377579	
2383.500	0.08388003	
2383.000	0.08414245	
2382.500	0.08457752	
2382.000	0.08519702	
2381.500	0.08600757	
2381.000	0.08701052	
2380.500	0.08820611	
2380.000	0.08959514	
2379.500	0.09117827	
2379.000	0.09295179	
2378.500	0.09491044	
2378.000	0.0970541	
2377.500	0.09938405	
2377.000	0.1019023	
2376.500	0.1046031	
2376.000	0.1074749	
2375.500	0.1104966	
2375.000	0.113647	
2374.500	0.1169083	
2374.000	0.120265	
2373.500	0.1236958	
2373.000	0.1271742	
2372.500	0.1306758	
2372.000	0.1341854	
2371.500	0.1376947	
2371.000	0.1411977	
2370.500	0.1446878	
2370.000	0.1481553	
2369.500	0.1515845	
2369.000	0.1549536	
2368.500	0.1582406	
2368.000	0.1614215	
2367.500	0.1644721	
2367.000	0.1673683	
2366.500	0.1700947	
2366.000	0.1726453	
2365.500	0.1750172	
2365.000	0.1772031	
2364.500	0.1791954	
2364.000	0.1809857	
2363.500	0.182563	
2363.000	0.1839201	
2362.500	0.1850493	
2362.000	0.1859517	
2361.500	0.1866258	
2361.000	0.18708	
2360.500	0.1873239	
2360.000	0.1873753	
2359.500	0.1872377	
2359.000	0.1869022	
2358.500	0.1863443	
2358.000	0.1855431	
2357.500	0.1844789	
2357.000	0.1831512	
2356.500	0.1815642	
2356.000	0.1797223	
2355.500	0.1776031	
2355.000	0.1751628	
2354.500	0.1723542	
2354.000	0.1691808	
2353.500	0.1657153	
2353.000	0.1621115	
2352.500	0.1585798	
2352.000	0.1553401	
2351.500	0.1525993	
2351.000	0.1505219	
2350.500	0.1492516	
2350.000	0.1488791	
2349.500	0.1494634	
2349.000	0.1509991	
2348.500	0.1534564	
2348.000	0.1567555	
2347.500	0.1607937	
2347.000	0.1654272	
2346.500	0.170492	
2346.000	0.1757991	
2345.500	0.1811463	
2345.000	0.1863425	
2344.500	0.1912568	
2344.000	0.1958439	
2343.500	0.2001275	
2343.000	0.2041724	
2342.500	0.20805	
2342.000	0.2118188	
2341.500	0.2155013	
2341.000	0.2190911	
2340.500	0.2225701	
2340.000	0.2259248	
2339.500	0.2291381	
2339.000	0.2321929	
2338.500	0.2350816	
2338.000	0.2378191	
2337.500	0.2404333	
2337.000	0.2429663	
2336.500	0.245477	
2336.000	0.2480355	
2335.500	0.250703	
2335.000	0.2535214	
2334.500	0.2565336	
2334.000	0.2597838	
2333.500	0.2633087	
2333.000	0.2671146	
2332.500	0.271205	
2332.000	0.2755837	
2331.500	0.2802563	
2331.000	0.2852225	
2330.500	0.290498	
2330.000	0.2961167	
2329.500	0.3021142	
2329.000	0.3085019	
2328.500	0.315371	
2328.000	0.3226746	
2327.500	0.3306648	
2327.000	0.3390286	
2326.500	0.3483921	
2326.000	0.3576135	
2325.500	0.3671915	
2325.000	0.3843942	
2324.500	0.4001547	
2324.000	0.4077407	
2323.500	0.4162785	
2323.000	0.4334257	
2322.500	0.4508186	
2322.000	0.4611629	
2321.500	0.4730488	
2321.000	0.4946624	
2320.500	0.5194921	
2320.000	0.5392946	
2319.500	0.5605263	
2319.000	0.5917233	
2318.500	0.6292008	
2318.000	0.6644393	
2317.500	0.7013554	
2317.000	0.7482079	
2316.500	0.8045142	
2316.000	0.8619414	
2315.500	0.9234987	
2315.000	0.9982951	
2314.500	1.077962	
2314.000	1.160894	
2313.500	1.256926	
2313.000	1.367935	
2312.500	1.484266	
2312.000	1.602403	
2311.500	1.733245	
2311.000	1.879964	
2310.500	2.029635	
2310.000	2.174488	
2309.500	2.320037	
2309.000	2.463752	
2308.500	2.593684	
2308.000	2.703123	
2307.500	2.794052	
2307.000	2.862339	
2306.500	2.898789	
2306.000	2.900611	
2305.500	2.874604	
2305.000	2.82401	
2304.500	2.745538	
2304.000	2.639561	
2303.500	2.51542	
2303.000	2.379966	
2302.500	2.232782	
2302.000	2.076692	
2301.500	1.924432	
2301.000	1.782263	
2300.500	1.645003	
2300.000	1.511712	
2299.500	1.389533	
2299.000	1.281758	
2298.500	1.185901	
2298.000	1.097807	
2297.500	1.016157	
2297.000	0.9420251	
2296.500	0.8763124	
2296.000	0.8172335	
2295.500	0.7627009	
2295.000	0.7128463	
2294.500	0.6689289	
2294.000	0.6303771	
2293.500	0.5947359	
2293.000	0.5610539	
2292.500	0.5303512	
2292.000	0.5030762	
2291.500	0.4778692	
2291.000	0.453447	
2290.500	0.4299796	
2290.000	0.4084162	
2289.500	0.3887437	
2289.000	0.3697926	
2288.500	0.3511033	
2288.000	0.3333244	
2287.500	0.3169893	
2287.000	0.3017147	
2286.500	0.2868583	
2286.000	0.2725514	
2285.500	0.2593218	
2285.000	0.2471502	
2284.500	0.2357201	
2284.000	0.22485	
2283.500	0.2145629	
2283.000	0.2051176	
2282.500	0.1964777	
2282.000	0.1882596	
2281.500	0.1801944	
2281.000	0.1722885	
2280.500	0.1652385	
2280.000	0.1588446	
2279.500	0.1530021	
2279.000	0.1475629	
2278.500	0.1425579	
2278.000	0.1380614	
2277.500	0.1339704	
2277.000	0.1301269	
2276.500	0.1265434	
2276.000	0.1232911	
2275.500	0.1202827	
2275.000	0.1174079	
2274.500	0.1146844	
2274.000	0.1120523	
2273.500	0.1094197	
2273.000	0.1068256	
2272.500	0.104241	
2272.000	0.1015383	
2271.500	0.09863375	
2271.000	0.09576373	
2270.500	0.09340468	
2270.000	0.0911079	
2269.500	0.08892649	
2269.000	0.08682591	
2268.500	0.08482094	
2268.000	0.0829004	
2267.500	0.08106579	
2267.000	0.07931465	
2266.500	0.0776469	
2266.000	0.07605913	
2265.500	0.07454248	
2265.000	0.07308837	
2264.500	0.0716904	
2264.000	0.07034609	
2263.500	0.06905263	
2263.000	0.06780317	
2262.500	0.06658792	
2262.000	0.06539873	
2261.500	0.06423367	
2261.000	0.06309519	
2260.500	0.06198641	
2260.000	0.06091068	
2259.500	0.05987249	
2259.000	0.0588749	
2258.500	0.05791615	
2258.000	0.05699138	
2257.500	0.05609711	
2257.000	0.0552321	
2256.500	0.05439335	
2256.000	0.0535749	
2255.500	0.05277239	
2255.000	0.05198532	
2254.500	0.05121549	
2254.000	0.0504627	
2253.500	0.04972481	
2253.000	0.04899988	
2252.500	0.04828643	
2252.000	0.04758212	
2251.500	0.04688378	
2251.000	0.04618884	
2250.500	0.04549624	
2250.000	0.04480648	
2249.500	0.04412155	
2249.000	0.04344428	
2248.500	0.04277734	
2248.000	0.04212173	
2247.500	0.04147543	
2247.000	0.04083244	
2246.500	0.04018463	
2246.000	0.03952713	
2245.500	0.03886162	
2245.000	0.03819218	
2244.500	0.03751874	
2244.000	0.03683613	
2243.500	0.0361432	
2243.000	0.03544718	
2242.500	0.03476058	
2242.000	0.03408669	
2241.500	0.03341094	
2241.000	0.03275391	
2240.500	0.03212592	
2240.000	0.03151475	
2239.500	0.03091218	
2239.000	0.03032919	
2238.500	0.02977527	
2238.000	0.0292365	
2237.500	0.02869376	
2237.000	0.02814671	
2236.500	0.02761371	
2236.000	0.02710807	
2235.500	0.02662858	
2235.000	0.02616793	
2234.500	0.02572213	
2234.000	0.02528926	
2233.500	0.02486609	
2233.000	0.0244485	
2232.500	0.02403402	
2232.000	0.02361936	
2231.500	0.02320628	
2231.000	0.02282027	
2230.500	0.02245251	
2230.000	0.02209168	
2229.500	0.02174628	
2229.000	0.02142807	
2228.500	0.02112917	
2228.000	0.02083106	
2227.500	0.02053133	
2227.000	0.02023996	
2226.500	0.01995963	
2226.000	0.01967892	
2225.500	0.01939042	
2225.000	0.01909991	
2224.500	0.01881687	
2224.000	0.01854336	
2223.500	0.01827778	
2223.000	0.01802416	
2222.500	0.01779027	
2222.000	0.01757976	
2221.500	0.01738909	
2221.000	0.01721307	
2220.500	0.01704778	
2220.000	0.01689042	
2219.500	0.016739	
2219.000	0.01659465	
2218.500	0.01646234	
2218.000	0.01634744	
2217.500	0.01625102	
2217.000	0.01616833	
2216.500	0.01609068	
2216.000	0.01600832	
2215.500	0.01591327	
2215.000	0.01580238	
2214.500	0.0156794	
2214.000	0.01555335	
2213.500	0.01543246	
2213.000	0.01531871	
2212.500	0.01520878	
2212.000	0.01510029	
2211.500	0.01499533	
2211.000	0.01489721	
2210.500	0.01480559	
2210.000	0.0147165	
2209.500	0.01462664	
2209.000	0.01453576	
2208.500	0.01444586	
2208.000	0.01435973	
2207.500	0.01427993	
2207.000	0.01420694	
2206.500	0.01413731	
2206.000	0.01406528	
2205.500	0.01398725	
2205.000	0.01390439	
2204.500	0.01381957	
2204.000	0.01373127	
2203.500	0.01363162	
2203.000	0.0135115	
2202.500	0.01336869	
2202.000	0.01321073	
2201.500	0.0130492	
2201.000	0.01289182	
2200.500	0.01273999	
2200.000	0.01259242	
2199.500	0.01244784	
2199.000	0.01230414	
2198.500	0.01215876	
2198.000	0.01201251	
2197.500	0.01187087	
2197.000	0.01173896	
2196.500	0.01161658	
2196.000	0.01150125	
2195.500	0.01139481	
2195.000	0.01130409	
2194.500	0.01123463	
2194.000	0.01118571	
2193.500	0.01115237	
2193.000	0.01112946	
2192.500	0.01111322	
2192.000	0.01110098	
2191.500	0.01109165	
2191.000	0.01108699	
2190.500	0.01109143	
2190.000	0.01111055	
2189.500	0.01114971	
2189.000	0.01121318	
2188.500	0.0113044	
2188.000	0.01142699	
2187.500	0.01158386	
2187.000	0.01177433	
2186.500	0.01199372	
2186.000	0.01223721	
2185.500	0.01250467	
2185.000	0.01280041	
2184.500	0.01312891	
2184.000	0.01349372	
2183.500	0.01389742	
2183.000	0.01434195	
2182.500	0.01482813	
2182.000	0.01535779	
2181.500	0.01593744	
2181.000	0.01657765	
2180.500	0.01728722	
2180.000	0.01806855	
2179.500	0.01892029	
2179.000	0.01984316	
2178.500	0.02084268	
2178.000	0.02192604	
2177.500	0.02310029	
2177.000	0.02436838	
2176.500	0.0257298	
2176.000	0.02718115	
2175.500	0.02871944	
2175.000	0.03034443	
2174.500	0.03205855	
2174.000	0.03386471	
2173.500	0.0357659	
2173.000	0.03776281	
2172.500	0.03985448	
2172.000	0.04204138	
2171.500	0.04432609	
2171.000	0.04671377	
2170.500	0.04920599	
2170.000	0.05179966	
2169.500	0.05449225	
2169.000	0.05728706	
2168.500	0.06019406	
2168.000	0.06322405	
2167.500	0.06638551	
2167.000	0.06968468	
2166.500	0.07312536	
2166.000	0.07671214	
2165.500	0.08045057	
2165.000	0.08434537	
2164.500	0.08839572	
2164.000	0.0925885	
2163.500	0.09689544	
2163.000	0.101277	
2162.500	0.1056893	
2162.000	0.1100906	
2161.500	0.1144397	
2161.000	0.1186916	
2160.500	0.1227905	
2160.000	0.1266735	
2159.500	0.130277	
2159.000	0.1335411	
2158.500	0.1364103	
2158.000	0.1388341	
2157.500	0.1407649	
2157.000	0.1421662	
2156.500	0.1430094	
2156.000	0.1432827	
2155.500	0.1429925	
2155.000	0.1421651	
2154.500	0.1408367	
2154.000	0.1390493	
2153.500	0.1368458	
2153.000	0.1342763	
2152.500	0.1314047	
2152.000	0.1283075	
2151.500	0.1250639	
2151.000	0.1217434	
2150.500	0.1183992	
2150.000	0.1150731	
2149.500	0.1118017	
2149.000	0.1086206	
2148.500	0.1055641	
2148.000	0.1026635	
2147.500	0.09994401	
2147.000	0.09741921	
2146.500	0.09509287	
2146.000	0.09296322	
2145.500	0.09103161	
2145.000	0.08930328	
2144.500	0.08777854	
2144.000	0.08645189	
2143.500	0.08531723	
2143.000	0.08437404	
2142.500	0.08363047	
2142.000	0.08309503	
2141.500	0.08277188	
2141.000	0.0826615	
2140.500	0.08276343	
2140.000	0.08307835	
2139.500	0.083608	
2139.000	0.08435551	
2138.500	0.0853262	
2138.000	0.08652992	
2137.500	0.08798266	
2137.000	0.08970212	
2136.500	0.0917093	
2136.000	0.09401984	
2135.500	0.09664735	
2135.000	0.09960046	
2134.500	0.1028859	
2134.000	0.1065033	
2133.500	0.1104471	
2133.000	0.1146976	
2132.500	0.1192161	
2132.000	0.1239454	
2131.500	0.1288169	
2131.000	0.13375	
2130.500	0.1386471	
2130.000	0.1433934	
2129.500	0.1478628	
2129.000	0.1519269	
2128.500	0.1554597	
2128.000	0.1583442	
2127.500	0.160476	
2127.000	0.1617722	
2126.500	0.1621661	
2126.000	0.1616133	
2125.500	0.1601071	
2125.000	0.1576744	
2124.500	0.1543751	
2124.000	0.1502889	
2123.500	0.1455114	
2123.000	0.1401515	
2122.500	0.1343234	
2122.000	0.1281445	
2121.500	0.1217305	
2121.000	0.1151878	
2120.500	0.1086154	
2120.000	0.1021057	
2119.500	0.09574449	
2119.000	0.0896031	
2118.500	0.08373294	
2118.000	0.07816753	
2117.500	0.07292689	
2117.000	0.06801894	
2116.500	0.06343713	
2116.000	0.05916382	
2115.500	0.05517929	
2115.000	0.05146565	
2114.500	0.04800778	
2114.000	0.04479411	
2113.500	0.04181747	
2113.000	0.0390666	
2112.500	0.03652264	
2112.000	0.03416044	
2111.500	0.03195411	
2111.000	0.02988243	
2110.500	0.02793087	
2110.000	0.02609064	
2109.500	0.02435643	
2109.000	0.02272381	
2108.500	0.02118673	
2108.000	0.01973928	
2107.500	0.01837636	
2107.000	0.01709304	
2106.500	0.0158815	
2106.000	0.01473398	
2105.500	0.013648	
2105.000	0.01262827	
2104.500	0.01168211	
2104.000	0.01081175	
2103.500	0.01001015	
2103.000	0.009263018	
2102.500	0.008555162	
2102.000	0.007878655	
2101.500	0.007234661	
2101.000	0.006629584	
2100.500	0.006068557	
2100.000	0.005551152	
2099.500	0.005074189	
2099.000	0.004632473	
2098.500	0.00421599	
2098.000	0.003813546	
2097.500	0.003423534	
2097.000	0.003057562	
2096.500	0.002727488	
2096.000	0.002429867	
2095.500	0.002149007	
2095.000	0.001875661	
2094.500	0.001615489	
2094.000	0.00137724	
2093.500	0.001158626	
2093.000	0.0009481495	
2092.500	0.0007366837	
2092.000	0.0005226443	
2091.500	0.0003085888	
2091.000	9.817349E-5	
2090.500	-0.0001032464	
2090.000	-0.0002900399	
2089.500	-0.0004551155	
2089.000	-0.0005952927	
2088.500	-0.0007129578	
2088.000	-0.0008064964	
2087.500	-0.0008706539	
2087.000	-0.0009125002	
2086.500	-0.0009586518	
2086.000	-0.001032606	
2085.500	-0.001125358	
2085.000	-0.001201834	
2084.500	-0.001241131	
2084.000	-0.001259775	
2083.500	-0.001288101	
2083.000	-0.001333884	
2082.500	-0.001379187	
2082.000	-0.001404996	
2081.500	-0.001405027	
2081.000	-0.001379212	
2080.500	-0.001326543	
2080.000	-0.001247088	
2079.500	-0.001141373	
2079.000	-0.001013041	
2078.500	-0.0008673011	
2078.000	-0.0007058976	
2077.500	-0.0005316878	
2077.000	-0.0003483984	
2076.500	-0.0001503647	
2076.000	7.948594E-5	
2075.500	0.0003543185	
2075.000	0.0006610296	
2074.500	0.0009649088	
2074.000	0.00124281	
2073.500	0.00150416	
2073.000	0.001776942	
2072.500	0.002085193	
2072.000	0.002443985	
2071.500	0.002859728	
2071.000	0.003322153	
2070.500	0.003805868	
2070.000	0.004295551	
2069.500	0.004808161	
2069.000	0.005377591	
2068.500	0.006028178	
2068.000	0.006770216	
2067.500	0.007612791	
2067.000	0.00857153	
2066.500	0.009662862	
2066.000	0.01089948	
2065.500	0.01230107	
2065.000	0.01390212	
2064.500	0.01574819	
2064.000	0.01789701	
2063.500	0.02041551	
2063.000	0.02338715	
2062.500	0.02691825	
2062.000	0.03113577	
2061.500	0.03617152	
2061.000	0.04213775	
2060.500	0.04910949	
2060.000	0.05710396	
2059.500	0.06603487	
2059.000	0.07567176	
2058.500	0.08564189	
2058.000	0.09548074	
2057.500	0.1046989	
2057.000	0.1128248	
2056.500	0.1194341	
2056.000	0.1241893	
2055.500	0.1268521	
2055.000	0.1273089	
2054.500	0.1255521	
2054.000	0.1216837	
2053.500	0.1159271	
2053.000	0.1086037	
2052.500	0.1001237	
2052.000	0.09095092	
2051.500	0.08155981	
2051.000	0.07238661	
2050.500	0.06377981	
2050.000	0.0559667	
2049.500	0.04904852	
2049.000	0.04302534	
2048.500	0.0378413	
2048.000	0.03340667	
2047.500	0.02960407	
2047.000	0.02628947	
2046.500	0.02333798	
2046.000	0.02067259	
2045.500	0.01826583	
2045.000	0.01610034	
2044.500	0.01414885	
2044.000	0.0123783	
2043.500	0.0107674	
2043.000	0.009304918	
2042.500	0.007976734	
2042.000	0.006771009	
2041.500	0.00567852	
2041.000	0.004690335	
2040.500	0.003794378	
2040.000	0.002972438	
2039.500	0.002212753	
2039.000	0.001518982	
2038.500	0.0009007164	
2038.000	0.0003461646	
2037.500	-0.0001818526	
2037.000	-0.0007158233	
2036.500	-0.001250959	
2036.000	-0.001752523	
2035.500	-0.002192898	
2035.000	-0.002575586	
2034.500	-0.00292118	
2034.000	-0.003244374	
2033.500	-0.00354805	
2033.000	-0.003835652	
2032.500	-0.004117216	
2032.000	-0.004403053	
2031.500	-0.004699037	
2031.000	-0.00500434	
2030.500	-0.005311204	
2030.000	-0.005608934	
2029.500	-0.005889413	
2029.000	-0.006150955	
2028.500	-0.006396128	
2028.000	-0.00662406	
2027.500	-0.006822542	
2027.000	-0.006977164	
2026.500	-0.00707652	
2026.000	-0.007104739	
2025.500	-0.007049433	
2025.000	-0.006916947	
2024.500	-0.006723448	
2024.000	-0.006462196	
2023.500	-0.00610674	
2023.000	-0.005664489	
2022.500	-0.005207675	
2022.000	-0.004821039	
2021.500	-0.004524678	
2021.000	-0.004270326	
2020.500	-0.004006317	
2020.000	-0.003722429	
2019.500	-0.003433851	
2019.000	-0.003147689	
2018.500	-0.002857332	
2018.000	-0.002555444	
2017.500	-0.00223509	
2017.000	-0.001896166	
2016.500	-0.001542343	
2016.000	-0.001174325	
2015.500	-0.0007959141	
2015.000	-0.0004116783	
2014.500	-8.826612E-6	
2014.000	0.0004411938	
2013.500	0.0009425043	
2013.000	0.001447521	
2012.500	0.001898848	
2012.000	0.002299731	
2011.500	0.002715731	
2011.000	0.003201625	
2010.500	0.003752512	
2010.000	0.004332907	
2009.500	0.004926825	
2009.000	0.005542568	
2008.500	0.006186778	
2008.000	0.006853827	
2007.500	0.00753584	
2007.000	0.008223101	
2006.500	0.008906699	
2006.000	0.009588294	
2005.500	0.01027918	
2005.000	0.01098672	
2004.500	0.01170307	
2004.000	0.01240875	
2003.500	0.01308531	
2003.000	0.01372191	
2002.500	0.01431914	
2002.000	0.01487467	
2001.500	0.0153791	
2001.000	0.01581854	
2000.500	0.01616673	
2000.000	0.01639709	
1999.500	0.01652389	
1999.000	0.01661843	
1998.500	0.01674156	
1998.000	0.01684793	
1997.500	0.01679568	
1997.000	0.01647933	
1996.500	0.01593255	
1996.000	0.01528275	
1995.500	0.01463706	
1995.000	0.01402444	
1994.500	0.01341294	
1994.000	0.0127541	
1993.500	0.01201803	
1993.000	0.01120957	
1992.500	0.0103714	
1992.000	0.009541185	
1991.500	0.008735535	
1991.000	0.007960054	
1990.500	0.007219748	
1990.000	0.006540784	
1989.500	0.005977344	
1989.000	0.005569607	
1988.500	0.005267345	
1988.000	0.004940311	
1987.500	0.004500867	
1987.000	0.00400067	
1986.500	0.003571483	
1986.000	0.003291647	
1985.500	0.003143176	
1985.000	0.003064852	
1984.500	0.003008538	
1984.000	0.002957951	
1983.500	0.002928755	
1983.000	0.002959526	
1982.500	0.00308854	
1982.000	0.003323149	
1981.500	0.003652339	
1981.000	0.004076824	
1980.500	0.004607723	
1980.000	0.005255838	
1979.500	0.006029465	
1979.000	0.006939631	
1978.500	0.007993756	
1978.000	0.00919988	
1977.500	0.01055865	
1977.000	0.01206917	
1976.500	0.0137269	
1976.000	0.01550787	
1975.500	0.01737188	
1975.000	0.01929165	
1974.500	0.0212705	
1974.000	0.02330923	
1973.500	0.02534732	
1973.000	0.02725284	
1972.500	0.02888809	
1972.000	0.03018057	
1971.500	0.03112253	
1971.000	0.03171591	
1970.500	0.03194984	
1970.000	0.03180648	
1969.500	0.03127807	
1969.000	0.03036809	
1968.500	0.02909485	
1968.000	0.02750205	
1967.500	0.02563879	
1967.000	0.02355591	
1966.500	0.02130448	
1966.000	0.01893485	
1965.500	0.01651897	
1965.000	0.01415179	
1964.500	0.01191524	
1964.000	0.00982621	
1963.500	0.007831172	
1963.000	0.005871173	
1962.500	0.003954754	
1962.000	0.002152107	
1961.500	0.0005225281	
1961.000	-0.0009321183	
1960.500	-0.002247319	
1960.000	-0.003453667	
1959.500	-0.004563478	
1959.000	-0.005578978	
1958.500	-0.006501597	
1958.000	-0.007336128	
1957.500	-0.008102263	
1957.000	-0.008820376	
1956.500	-0.009498365	
1956.000	-0.01013401	
1955.500	-0.01072367	
1955.000	-0.01127338	
1954.500	-0.0117915	
1954.000	-0.01227683	
1953.500	-0.01271685	
1953.000	-0.0130894	
1952.500	-0.01338969	
1952.000	-0.01362806	
1951.500	-0.01383586	
1951.000	-0.0140829	
1950.500	-0.01443039	
1950.000	-0.01482964	
1949.500	-0.01510645	
1949.000	-0.01511159	
1948.500	-0.01491215	
1948.000	-0.01476619	
1947.500	-0.0148499	
1947.000	-0.01509955	
1946.500	-0.01535711	
1946.000	-0.01555376	
1945.500	-0.01572375	
1945.000	-0.01590978	
1944.500	-0.01611004	
1944.000	-0.01630717	
1943.500	-0.01649725	
1943.000	-0.01667479	
1942.500	-0.0168556	
1942.000	-0.01705839	
1941.500	-0.01729783	
1941.000	-0.01757566	
1940.500	-0.01783275	
1940.000	-0.01794451	
1939.500	-0.01783313	
1939.000	-0.01760329	
1938.500	-0.01750554	
1938.000	-0.01769206	
1937.500	-0.01804273	
1937.000	-0.01832491	
1936.500	-0.01845212	
1936.000	-0.01849783	
1935.500	-0.01854429	
1935.000	-0.01860173	
1934.500	-0.01865367	
1934.000	-0.018705	
1933.500	-0.01876741	
1933.000	-0.01884037	
1932.500	-0.01892738	
1932.000	-0.01902904	
1931.500	-0.01914874	
1931.000	-0.01929552	
1930.500	-0.0194476	
1930.000	-0.0195273	
1929.500	-0.01945477	
1929.000	-0.01925754	
1928.500	-0.01907108	
1928.000	-0.01903372	
1927.500	-0.01914583	
1927.000	-0.01930038	
1926.500	-0.01944863	
1926.000	-0.01963863	
1925.500	-0.01986589	
1925.000	-0.01996342	
1924.500	-0.01973278	
1924.000	-0.01920939	
1923.500	-0.0187057	
1923.000	-0.01846949	
1922.500	-0.01842036	
1922.000	-0.01833826	
1921.500	-0.01813329	
1921.000	-0.01785761	
1920.500	-0.01754532	
1920.000	-0.01717605	
1919.500	-0.01678455	
1919.000	-0.0165176	
1918.500	-0.01649478	
1918.000	-0.01672746	
1917.500	-0.01709275	
1917.000	-0.01744195	
1916.500	-0.01772421	
1916.000	-0.01795097	
1915.500	-0.0180831	
1915.000	-0.0180292	
1914.500	-0.01780509	
1914.000	-0.0176282	
1913.500	-0.01771236	
1913.000	-0.01797811	
1912.500	-0.0181525	
1912.000	-0.01811408	
1911.500	-0.01796236	
1911.000	-0.01783397	
1910.500	-0.01775775	
1910.000	-0.01770687	
1909.500	-0.01767561	
1909.000	-0.01767002	
1908.500	-0.01766704	
1908.000	-0.0176497	
1907.500	-0.01758754	
1907.000	-0.01743923	
1906.500	-0.01721986	
1906.000	-0.0170072	
1905.500	-0.0168534	
1905.000	-0.01671822	
1904.500	-0.01652903	
1904.000	-0.01628754	
1903.500	-0.01606945	
1903.000	-0.01591896	
1902.500	-0.01578143	
1902.000	-0.01555726	
1901.500	-0.01520698	
1901.000	-0.01479618	
1900.500	-0.01443543	
1900.000	-0.01417625	
1899.500	-0.01398626	
1899.000	-0.01379069	
1898.500	-0.01354864	
1898.000	-0.01330669	
1897.500	-0.01313925	
1897.000	-0.01302341	
1896.500	-0.01280687	
1896.000	-0.01233679	
1895.500	-0.01165152	
1895.000	-0.01099213	
1894.500	-0.01053892	
1894.000	-0.010243	
1893.500	-0.009954995	
1893.000	-0.009591807	
1892.500	-0.00915369	
1892.000	-0.008665346	
1891.500	-0.008168481	
1891.000	-0.007738721	
1890.500	-0.007438656	
1890.000	-0.007238962	
1889.500	-0.007077973	
1889.000	-0.006921531	
1888.500	-0.006781467	
1888.000	-0.006692893	
1887.500	-0.006635628	
1887.000	-0.006502789	
1886.500	-0.006200709	
1886.000	-0.005795798	
1885.500	-0.005515183	
1885.000	-0.005525862	
1884.500	-0.005734841	
1884.000	-0.005923079	
1883.500	-0.006005775	
1883.000	-0.006056515	
1882.500	-0.006156418	
1882.000	-0.006304745	
1881.500	-0.006467947	
1881.000	-0.006645994	
1880.500	-0.006868082	
1880.000	-0.007124969	
1879.500	-0.007403584	
1879.000	-0.007705092	
1878.500	-0.008006046	
1878.000	-0.00830009	
1877.500	-0.008639599	
1877.000	-0.009052603	
1876.500	-0.009441733	
1876.000	-0.009622331	
1875.500	-0.009495625	
1875.000	-0.009181781	
1874.500	-0.008896444	
1874.000	-0.008702984	
1873.500	-0.008508325	
1873.000	-0.008249551	
1872.500	-0.007967329	
1872.000	-0.007728408	
1871.500	-0.007563239	
1871.000	-0.007481441	
1870.500	-0.007503588	
1870.000	-0.007627374	
1869.500	-0.007863758	
1869.000	-0.008241221	
1868.500	-0.008734495	
1868.000	-0.009308974	
1867.500	-0.009950971	
1867.000	-0.01058387	
1866.500	-0.01106559	
1866.000	-0.01131447	
1865.500	-0.01141773	
1865.000	-0.01156248	
1864.500	-0.01181419	
1864.000	-0.01205473	
1863.500	-0.01218131	
1863.000	-0.01222645	
1862.500	-0.01226415	
1862.000	-0.01231231	
1861.500	-0.01235583	
1861.000	-0.0123924	
1860.500	-0.01242415	
1860.000	-0.01243537	
1859.500	-0.01243253	
1859.000	-0.0124407	
1858.500	-0.0124463	
1858.000	-0.01243046	
1857.500	-0.01241381	
1857.000	-0.01242123	
1856.500	-0.0124534	
1856.000	-0.01249407	
1855.500	-0.01253569	
1855.000	-0.01254845	
1854.500	-0.0124813	
1854.000	-0.01233939	
1853.500	-0.01219015	
1853.000	-0.01213306	
1852.500	-0.01227473	
1852.000	-0.01265026	
1851.500	-0.013088	
1851.000	-0.01319898	
1850.500	-0.01263869	
1850.000	-0.01161859	
1849.500	-0.01079397	
1849.000	-0.01036066	
1848.500	-0.009928342	
1848.000	-0.00920395	
1847.500	-0.008300304	
1847.000	-0.007492251	
1846.500	-0.006901463	
1846.000	-0.00648452	
1845.500	-0.006219071	
1845.000	-0.00611418	
1844.500	-0.006166191	
1844.000	-0.00640597	
1843.500	-0.006879003	
1843.000	-0.007617868	
1842.500	-0.0085844	
1842.000	-0.009578338	
1841.500	-0.01026615	
1841.000	-0.01042867	
1840.500	-0.01023881	
1840.000	-0.01025031	
1839.500	-0.01070304	
1839.000	-0.0111391	
1838.500	-0.011195	
1838.000	-0.01109678	
1837.500	-0.01116597	
1837.000	-0.01132272	
1836.500	-0.0111848	
1836.000	-0.01056923	
1835.500	-0.009772499	
1835.000	-0.009170284	
1834.500	-0.008755905	
1834.000	-0.008344257	
1833.500	-0.007927358	
1833.000	-0.007649662	
1832.500	-0.007526422	
1832.000	-0.007335914	
1831.500	-0.006868752	
1831.000	-0.006263846	
1830.500	-0.005909622	
1830.000	-0.006003424	
1829.500	-0.006369501	
1829.000	-0.006782558	
1828.500	-0.007221869	
1828.000	-0.007728648	
1827.500	-0.008191181	
1827.000	-0.008394325	
1826.500	-0.008297529	
1826.000	-0.008162989	
1825.500	-0.00833357	
1825.000	-0.008840384	
1824.500	-0.009375832	
1824.000	-0.009730832	
1823.500	-0.009967577	
1823.000	-0.01017252	
1822.500	-0.01027271	
1822.000	-0.01016229	
1821.500	-0.009941125	
1821.000	-0.009894918	
1820.500	-0.01014464	
1820.000	-0.01045343	
1819.500	-0.01051883	
1819.000	-0.0103302	
1818.500	-0.01010902	
1818.000	-0.01000067	
1817.500	-0.009934127	
1817.000	-0.00975046	
1816.500	-0.009432243	
1816.000	-0.009136181	
1815.500	-0.008981515	
1815.000	-0.008893311	
1814.500	-0.00869193	
1814.000	-0.008323311	
1813.500	-0.007939146	
1813.000	-0.007703562	
1812.500	-0.007631404	
1812.000	-0.007619527	
1811.500	-0.007586793	
1811.000	-0.007546778	
1810.500	-0.007567725	
1810.000	-0.007654787	
1809.500	-0.007737753	
1809.000	-0.007733926	
1808.500	-0.007590602	
1808.000	-0.007333551	
1807.500	-0.007074988	
1807.000	-0.00690265	
1806.500	-0.006775406	
1806.000	-0.006562336	
1805.500	-0.006159286	
1805.000	-0.005594162	
1804.500	-0.004983839	
1804.000	-0.004415178	
1803.500	-0.00390883	
1803.000	-0.003397778	
1802.500	-0.002829846	
1802.000	-0.002221802	
1801.500	-0.001665148	
1801.000	-0.001355806	
1800.500	-0.001423321	
1800.000	-0.00166964	
1799.500	-0.001658724	
1799.000	-0.001047212	
1798.500	4.331395E-5	
1798.000	0.001112596	
1797.500	0.002003693	
1797.000	0.00310168	
1796.500	0.004723629	
1796.000	0.006672731	
1795.500	0.008520158	
1795.000	0.01006703	
1794.500	0.01142974	
1794.000	0.01275203	
1793.500	0.01398044	
1793.000	0.01496225	
1792.500	0.0155584	
1792.000	0.01574694	
1791.500	0.01562223	
1791.000	0.01522899	
1790.500	0.01457651	
1790.000	0.0138222	
1789.500	0.01321425	
1789.000	0.01280103	
1788.500	0.01231181	
1788.000	0.01157681	
1787.500	0.01090148	
1787.000	0.01058306	
1786.500	0.01041612	
1786.000	0.009977146	
1785.500	0.009187824	
1785.000	0.008289134	
1784.500	0.007433202	
1784.000	0.006526229	
1783.500	0.005442348	
1783.000	0.004261529	
1782.500	0.003198208	
1782.000	0.002462381	
1781.500	0.002038318	
1781.000	0.001522992	
1780.500	0.0005010442	
1780.000	-0.0008902913	
1779.500	-0.002055986	
1779.000	-0.002524304	
1778.500	-0.002301254	
1778.000	-0.001724431	
1777.500	-0.0008888501	
1777.000	0.0003219522	
1776.500	0.001688489	
1776.000	0.002805348	
1775.500	0.003639021	
1775.000	0.004516358	
1774.500	0.005650029	
1774.000	0.006753732	
1773.500	0.007289398	
1773.000	0.007129978	
1772.500	0.006563532	
1772.000	0.005802064	
1771.500	0.004726762	
1771.000	0.003139	
1770.500	0.001155088	
1770.000	-0.0008551851	
1769.500	-0.002627134	
1769.000	-0.004078247	
1768.500	-0.005162359	
1768.000	-0.005816104	
1767.500	-0.006033197	
1767.000	-0.00611577	
1766.500	-0.006383225	
1766.000	-0.006674885	
1765.500	-0.006583962	
1765.000	-0.006012949	
1764.500	-0.005345725	
1764.000	-0.005079829	
1763.500	-0.005240007	
1763.000	-0.005359373	
1762.500	-0.00522602	
1762.000	-0.005136056	
1761.500	-0.005360129	
1761.000	-0.005841347	
1760.500	-0.006398643	
1760.000	-0.006991832	
1759.500	-0.00767409	
1759.000	-0.008354271	
1758.500	-0.008782428	
1758.000	-0.008830814	
1757.500	-0.008608165	
1757.000	-0.00842844	
1756.500	-0.008501398	
1756.000	-0.008581088	
1755.500	-0.008280451	
1755.000	-0.007513935	
1754.500	-0.006498276	
1754.000	-0.005463561	
1753.500	-0.004452601	
1753.000	-0.003523466	
1752.500	-0.00293381	
1752.000	-0.00284078	
1751.500	-0.003075938	
1751.000	-0.003422743	
1750.500	-0.003834387	
1750.000	-0.004372511	
1749.500	-0.005088807	
1749.000	-0.005931255	
1748.500	-0.006809399	
1748.000	-0.007702228	
1747.500	-0.008690297	
1747.000	-0.009919914	
1746.500	-0.01111854	
1746.000	-0.01149155	
1745.500	-0.01084084	
1745.000	-0.009853261	
1744.500	-0.009121141	
1744.000	-0.008568698	
1743.500	-0.007848394	
1743.000	-0.007028828	
1742.500	-0.006539686	
1742.000	-0.0065848	
1741.500	-0.006901332	
1741.000	-0.007015048	
1740.500	-0.0063981	
1740.000	-0.004972217	
1739.500	-0.003443779	
1739.000	-0.002352163	
1738.500	-0.001560145	
1738.000	-0.0007353259	
1737.500	0.000383805	
1737.000	0.001964832	
1736.500	0.003997469	
1736.000	0.006077051	
1735.500	0.007419963	
1735.000	0.00764174	
1734.500	0.007075811	
1734.000	0.006162126	
1733.500	0.004894662	
1733.000	0.002973963	
1732.500	0.0003892751	
1732.000	-0.002454672	
1731.500	-0.005050723	
1731.000	-0.007085589	
1730.500	-0.008469846	
1730.000	-0.009506223	
1729.500	-0.01058203	
1729.000	-0.01147496	
1728.500	-0.01184616	
1728.000	-0.01173548	
1727.500	-0.01129153	
1727.000	-0.01068757	
1726.500	-0.01017071	
1726.000	-0.01000019	
1725.500	-0.01023823	
1725.000	-0.01058074	
1724.500	-0.01051346	
1724.000	-0.00960907	
1723.500	-0.008061542	
1723.000	-0.006644621	
1722.500	-0.005648912	
1722.000	-0.004592289	
1721.500	-0.002974984	
1721.000	-0.0007544123	
1720.500	0.001641284	
1720.000	0.003630547	
1719.500	0.004932961	
1719.000	0.005558671	
1718.500	0.005479212	
1718.000	0.004695595	
1717.500	0.003261432	
1717.000	0.00121375	
1716.500	-0.001337534	
1716.000	-0.004204993	
1715.500	-0.007146265	
1715.000	-0.009938547	
1714.500	-0.01241649	
1714.000	-0.01457363	
1713.500	-0.01661656	
1713.000	-0.01849342	
1712.500	-0.01957616	
1712.000	-0.01943981	
1711.500	-0.01830729	
1711.000	-0.01659002	
1710.500	-0.01462967	
1710.000	-0.01265308	
1709.500	-0.01074216	
1709.000	-0.009020766	
1708.500	-0.007676328	
1708.000	-0.006827023	
1707.500	-0.006282845	
1707.000	-0.005611907	
1706.500	-0.003730795	
1706.000	-0.0005640932	
1705.500	0.001993857	
1705.000	0.003584173	
1704.500	0.005370155	
1704.000	0.007714842	
1703.500	0.01023716	
1703.000	0.01251559	
1702.500	0.01448989	
1702.000	0.01655539	
1701.500	0.01869123	
1701.000	0.02009142	
1700.500	0.02061692	
1700.000	0.02069442	
1699.500	0.0203623	
1699.000	0.01942892	
1698.500	0.01775769	
1698.000	0.01541445	
1697.500	0.01291222	
1697.000	0.01088583	
1696.500	0.009715586	
1696.000	0.008299331	
1695.500	0.005509722	
1695.000	0.002718994	
1694.500	0.0009420607	
1694.000	-0.0004949789	
1693.500	-0.002230026	
1693.000	-0.004265945	
1692.500	-0.006175849	
1692.000	-0.007652581	
1691.500	-0.009013363	
1691.000	-0.01016486	
1690.500	-0.009801917	
1690.000	-0.007650779	
1689.500	-0.004783932	
1689.000	-0.001769981	
1688.500	0.00124299	
1688.000	0.004104096	
1687.500	0.006779596	
1687.000	0.009334078	
1686.500	0.01173123	
1686.000	0.01362021	
1685.500	0.0145995	
1685.000	0.01457277	
1684.500	0.01368432	
1684.000	0.01198539	
1683.500	0.009347898	
1683.000	0.005766678	
1682.500	0.001695889	
1682.000	-0.001980414	
1681.500	-0.00434969	
1681.000	-0.005220463	
1680.500	-0.005363997	
1680.000	-0.005489168	
1679.500	-0.00537752	
1679.000	-0.004522529	
1678.500	-0.003040606	
1678.000	-0.001285782	
1677.500	0.0005421986	
1677.000	0.002143663	
1676.500	0.003178941	
1676.000	0.003649438	
1675.500	0.004020003	
1675.000	0.004621024	
1674.500	0.005161259	
1674.000	0.005289435	
1673.500	0.005093469	
1673.000	0.004830417	
1672.500	0.004717158	
1672.000	0.004926659	
1671.500	0.005337255	
1671.000	0.005302922	
1670.500	0.004356132	
1670.000	0.003043439	
1669.500	0.002105597	
1669.000	0.001697651	
1668.500	0.001564753	
1668.000	0.001275858	
1667.500	0.0006221165	
1667.000	-0.0002150495	
1666.500	-0.0008024734	
1666.000	-0.0007522177	
1665.500	-0.0001050065	
1665.000	0.0006155895	
1664.500	0.0009252352	
1664.000	0.0009775345	
1663.500	0.001137324	
1663.000	0.001309199	
1662.500	0.001143578	
1662.000	0.0004971843	
1661.500	-0.0005362685	
1661.000	-0.001807106	
1660.500	-0.003144164	
1660.000	-0.00410565	
1659.500	-0.003967162	
1659.000	-0.001870734	
1658.500	0.001637012	
1658.000	0.005080282	
1657.500	0.008751585	
1657.000	0.01347014	
1656.500	0.01895823	
1656.000	0.02433941	
1655.500	0.02883119	
1655.000	0.03218197	
1654.500	0.03445234	
1654.000	0.03567331	
1653.500	0.03572112	
1653.000	0.03454164	
1652.500	0.03244992	
1652.000	0.02988371	
1651.500	0.02693676	
1651.000	0.02356793	
1650.500	0.02017144	
1650.000	0.01750223	
1649.500	0.01611836	
1649.000	0.01594418	
1648.500	0.01577432	
1648.000	0.01507166	
1647.500	0.01490296	
1647.000	0.01541314	
1646.500	0.015803	
1646.000	0.01553894	
1645.500	0.01450982	
1645.000	0.01300999	
1644.500	0.01141243	
1644.000	0.009901736	
1643.500	0.008447054	
1643.000	0.007085236	
1642.500	0.006143868	
1642.000	0.005990369	
1641.500	0.00692502	
1641.000	0.008811427	
1640.500	0.01112278	
1640.000	0.01379499	
1639.500	0.01694081	
1639.000	0.02029733	
1638.500	0.02342057	
1638.000	0.0260084	
1637.500	0.0279528	
1637.000	0.02922052	
1636.500	0.02982321	
1636.000	0.029717	
1635.500	0.02885194	
1635.000	0.02739422	
1634.500	0.02569313	
1634.000	0.02399794	
1633.500	0.02222758	
1633.000	0.02029717	
1632.500	0.01864492	
1632.000	0.01787692	
1631.500	0.01800955	
1631.000	0.01823646	
1630.500	0.01822058	
1630.000	0.01882857	
1629.500	0.02053761	
1629.000	0.02271371	
1628.500	0.02459665	
1628.000	0.02609083	
1627.500	0.02747335	
1627.000	0.02885239	
1626.500	0.03009996	
1626.000	0.03110504	
1625.500	0.03190168	
1625.000	0.03254821	
1624.500	0.03300814	
1624.000	0.03328341	
1623.500	0.03348723	
1623.000	0.03402458	
1622.500	0.03523372	
1622.000	0.03666883	
1621.500	0.03801355	
1621.000	0.03973771	
1620.500	0.04229731	
1620.000	0.04563876	
1619.500	0.04923384	
1619.000	0.05245126	
1618.500	0.05516434	
1618.000	0.05765673	
1617.500	0.05999149	
1617.000	0.06198454	
1616.500	0.06351713	
1616.000	0.06467063	
1615.500	0.06555761	
1615.000	0.06615891	
1614.500	0.06653916	
1614.000	0.06711897	
1613.500	0.06841465	
1613.000	0.07059709	
1612.500	0.0732306	
1612.000	0.07580626	
1611.500	0.07869723	
1611.000	0.08238198	
1610.500	0.08654421	
1610.000	0.09069107	
1609.500	0.09462924	
1609.000	0.09838007	
1608.500	0.1019751	
1608.000	0.1053742	
1607.500	0.1085704	
1607.000	0.1116088	
1606.500	0.1144966	
1606.000	0.1171987	
1605.500	0.1196501	
1605.000	0.1217624	
1604.500	0.123508	
1604.000	0.1249569	
1603.500	0.1261712	
1603.000	0.1270917	
1602.500	0.1276076	
1602.000	0.1277039	
1601.500	0.1274591	
1601.000	0.1269295	
1600.500	0.1261197	
1600.000	0.125025	
1599.500	0.1236219	
1599.000	0.1218629	
1598.500	0.1197515	
1598.000	0.1173763	
1597.500	0.1148228	
1597.000	0.1120925	
1596.500	0.1091669	
1596.000	0.1060958	
1595.500	0.1029526	
1595.000	0.09976066	
1594.500	0.09651771	
1594.000	0.09327336	
1593.500	0.09011295	
1593.000	0.08706376	
1592.500	0.08410793	
1592.000	0.08127126	
1591.500	0.07861907	
1591.000	0.07616713	
1590.500	0.07387076	
1590.000	0.07170158	
1589.500	0.06967887	
1589.000	0.06782608	
1588.500	0.06614097	
1588.000	0.06461813	
1587.500	0.06324972	
1587.000	0.06201348	
1586.500	0.06090112	
1586.000	0.05989977	
1585.500	0.05899651	
1585.000	0.05817521	
1584.500	0.05736266	
1584.000	0.0564475	
1583.500	0.05545162	
1583.000	0.0546212	
1582.500	0.05443547	
1582.000	0.05513566	
1581.500	0.05618051	
1581.000	0.05721955	
1580.500	0.05868446	
1580.000	0.06084123	
1579.500	0.06341112	
1579.000	0.06592097	
1578.500	0.0680409	
1578.000	0.06964593	
1577.500	0.07063221	
1577.000	0.07094999	
1576.500	0.07080305	
1576.000	0.07058224	
1575.500	0.07053144	
1575.000	0.07038472	
1574.500	0.06977585	
1574.000	0.06889999	
1573.500	0.0682884	
1573.000	0.0682843	
1572.500	0.06886771	
1572.000	0.06963421	
1571.500	0.07022933	
1571.000	0.07110686	
1570.500	0.07271337	
1570.000	0.07457029	
1569.500	0.07606889	
1569.000	0.07709361	
1568.500	0.07771759	
1568.000	0.07791168	
1567.500	0.07770454	
1567.000	0.07748681	
1566.500	0.07795169	
1566.000	0.07960008	
1565.500	0.08218992	
1565.000	0.08528136	
1564.500	0.08946471	
1564.000	0.09552969	
1563.500	0.1029805	
1563.000	0.1108755	
1562.500	0.1190153	
1562.000	0.1275791	
1561.500	0.1365894	
1561.000	0.1459411	
1560.500	0.1555242	
1560.000	0.1650025	
1559.500	0.1739788	
1559.000	0.182867	
1558.500	0.192564	
1558.000	0.2035993	
1557.500	0.2161927	
1557.000	0.230617	
1556.500	0.2472003	
1556.000	0.2658434	
1555.500	0.2857785	
1555.000	0.3063868	
1554.500	0.327504	
1554.000	0.348291	
1553.500	0.3672515	
1553.000	0.3834703	
1552.500	0.3966695	
1552.000	0.4064665	
1551.500	0.4124791	
1551.000	0.4145393	
1550.500	0.4123233	
1550.000	0.4053507	
1549.500	0.3940417	
1549.000	0.3800612	
1548.500	0.3648838	
1548.000	0.3489364	
1547.500	0.3322175	
1547.000	0.3151596	
1546.500	0.2986034	
1546.000	0.2831721	
1545.500	0.2692831	
1545.000	0.257066	
1544.500	0.2462552	
1544.000	0.2366999	
1543.500	0.228346	
1543.000	0.2210192	
1542.500	0.2145192	
1542.000	0.2085554	
1541.500	0.2026751	
1541.000	0.1964742	
1540.500	0.1898036	
1540.000	0.1829446	
1539.500	0.1764412	
1539.000	0.170431	
1538.500	0.1646954	
1538.000	0.1591453	
1537.500	0.153872	
1537.000	0.1492012	
1536.500	0.1454725	
1536.000	0.1428122	
1535.500	0.1411478	
1535.000	0.1400041	
1534.500	0.1390505	
1534.000	0.1385374	
1533.500	0.1384601	
1533.000	0.1384063	
1532.500	0.138091	
1532.000	0.1375738	
1531.500	0.1371557	
1531.000	0.1370424	
1530.500	0.1372182	
1530.000	0.1376809	
1529.500	0.1384066	
1529.000	0.1392767	
1528.500	0.1403313	
1528.000	0.1417824	
1527.500	0.1437318	
1527.000	0.146157	
1526.500	0.148859	
1526.000	0.1515777	
1525.500	0.1542684	
1525.000	0.156925	
1524.500	0.1594732	
1524.000	0.1618431	
1523.500	0.1640661	
1523.000	0.1662328	
1522.500	0.1682013	
1522.000	0.1698166	
1521.500	0.1711303	
1521.000	0.171987	
1520.500	0.1721832	
1520.000	0.1718404	
1519.500	0.1712425	
1519.000	0.1707228	
1518.500	0.1705449	
1518.000	0.1707622	
1517.500	0.1712627	
1517.000	0.1719313	
1516.500	0.172677	
1516.000	0.1735343	
1515.500	0.1746247	
1515.000	0.1758393	
1514.500	0.1771057	
1514.000	0.1786622	
1513.500	0.1807516	
1513.000	0.183287	
1512.500	0.1860573	
1512.000	0.1892592	
1511.500	0.1932462	
1511.000	0.1978774	
1510.500	0.2027918	
1510.000	0.2078639	
1509.500	0.2131335	
1509.000	0.2185206	
1508.500	0.2236085	
1508.000	0.2278604	
1507.500	0.2310776	
1507.000	0.233427	
1506.500	0.2350503	
1506.000	0.2359859	
1505.500	0.2363394	
1505.000	0.2363429	
1504.500	0.236205	
1504.000	0.2359629	
1503.500	0.2358331	
1503.000	0.2363532	
1502.500	0.2380903	
1502.000	0.2411287	
1501.500	0.2449012	
1501.000	0.2490274	
1500.500	0.2537091	
1500.000	0.2590443	
1499.500	0.2646453	
1499.000	0.2699605	
1498.500	0.2746276	
1498.000	0.2786425	
1497.500	0.2822018	
1497.000	0.2854722	
1496.500	0.2887106	
1496.000	0.2922493	
1495.500	0.2961214	
1495.000	0.2999958	
1494.500	0.3035231	
1494.000	0.3067951	
1493.500	0.3104691	
1493.000	0.3150211	
1492.500	0.3202245	
1492.000	0.3254653	
1491.500	0.3304257	
1491.000	0.3354496	
1490.500	0.3408581	
1490.000	0.3464161	
1489.500	0.351741	
1489.000	0.3567004	
1488.500	0.3614124	
1488.000	0.3661679	
1487.500	0.3712387	
1487.000	0.3767135	
1486.500	0.3825143	
1486.000	0.3884135	
1485.500	0.3942151	
1485.000	0.3999944	
1484.500	0.4059596	
1484.000	0.4122144	
1483.500	0.418755	
1483.000	0.4255448	
1482.500	0.4326374	
1482.000	0.4400526	
1481.500	0.4475513	
1481.000	0.4549374	
1480.500	0.462362	
1480.000	0.4701055	
1479.500	0.4782655	
1479.000	0.4867648	
1478.500	0.4956496	
1478.000	0.5051639	
1477.500	0.5152889	
1477.000	0.52566	
1476.500	0.536108	
1476.000	0.5467486	
1475.500	0.55765	
1475.000	0.5686352	
1474.500	0.5793883	
1474.000	0.5898427	
1473.500	0.6001984	
1473.000	0.610562	
1472.500	0.6208773	
1472.000	0.6310173	
1471.500	0.6410667	
1471.000	0.6515663	
1470.500	0.6629097	
1470.000	0.6749587	
1469.500	0.6876215	
1469.000	0.7011441	
1468.500	0.7158464	
1468.000	0.7317181	
1467.500	0.7483506	
1467.000	0.7654731	
1466.500	0.7832027	
1466.000	0.8016707	
1465.500	0.8208427	
1465.000	0.8406064	
1464.500	0.8608536	
1464.000	0.8817186	
1463.500	0.9035642	
1463.000	0.9267785	
1462.500	0.951464	
1462.000	0.9774673	
1461.500	1.005229	
1461.000	1.035435	
1460.500	1.067936	
1460.000	1.102122	
1459.500	1.137731	
1459.000	1.174673	
1458.500	1.212674	
1458.000	1.251252	
1457.500	1.289992	
1457.000	1.328858	
1456.500	1.368091	
1456.000	1.40804	
1455.500	1.448987	
1455.000	1.490952	
1454.500	1.533778	
1454.000	1.577401	
1453.500	1.621705	
1453.000	1.666299	
1452.500	1.710871	
1452.000	1.75617	
1451.500	1.804033	
1451.000	1.855431	
1450.500	1.910069	
1450.000	1.968217	
1449.500	2.030352	
1449.000	2.09527	
1448.500	2.160262	
1448.000	2.223563	
1447.500	2.285188	
1447.000	2.344949	
1446.500	2.401594	
1446.000	2.455902	
1445.500	2.511439	
1445.000	2.568242	
1444.500	2.625178	
1444.000	2.672763	
1443.500	2.716081	
1443.000	2.740039	
1442.500	2.759018	
1442.000	2.759744	
1441.500	2.761019	
1441.000	2.75705	
1440.500	2.75269	
1440.000	2.782468	
1439.500	2.855538	
1439.000	2.940997	
1438.500	3.029841	
1438.000	3.111495	
1437.500	3.174394	
1437.000	3.230071	
1436.500	3.255996	
1436.000	3.287252	
1435.500	3.304239	
1435.000	3.3235	
1434.500	3.316113	
1434.000	3.290499	
1433.500	3.291063	
1433.000	3.307218	
1432.500	3.33709	
1432.000	3.375436	
1431.500	3.438051	
1431.000	3.515369	
1430.500	3.605389	
1430.000	3.720113	
1429.500	3.833626	
1429.000	3.921122	
1428.500	3.981404	
1428.000	4.002978	
1427.500	3.982448	
1427.000	3.937503	
1426.500	3.848056	
1426.000	3.749738	
1425.500	3.600811	
1425.000	3.455967	
1424.500	3.338258	
1424.000	3.266257	
1423.500	3.234135	
1423.000	3.216937	
1422.500	3.197503	
1422.000	3.200854	
1421.500	3.216993	
1421.000	3.241023	
1420.500	3.253347	
1420.000	3.263825	
1419.500	3.272743	
1419.000	3.277315	
1418.500	3.264827	
1418.000	3.233745	
1417.500	3.183121	
1417.000	3.115879	
1416.500	3.024476	
1416.000	2.918755	
1415.500	2.800533	
1415.000	2.705958	
1414.500	2.629816	
1414.000	2.533085	
1413.500	2.420032	
1413.000	2.308295	
1412.500	2.19779	
1412.000	2.104264	
1411.500	2.019318	
1411.000	1.940073	
1410.500	1.86115	
1410.000	1.787106	
1409.500	1.717677	
1409.000	1.654318	
1408.500	1.59594	
1408.000	1.542169	
1407.500	1.491842	
1407.000	1.444433	
1406.500	1.399296	
1406.000	1.356118	
1405.500	1.314814	
1405.000	1.275518	
1404.500	1.23827	
1404.000	1.202969	
1403.500	1.169507	
1403.000	1.137794	
1402.500	1.107684	
1402.000	1.079013	
1401.500	1.051679	
1401.000	1.025638	
1400.500	1.000773	
1400.000	0.9768889	
1399.500	0.9538885	
1399.000	0.9317942	
1398.500	0.9105614	
1398.000	0.8900197	
1397.500	0.86994	
1397.000	0.8501868	
1396.500	0.830857	
1396.000	0.8121649	
1395.500	0.7941928	
1395.000	0.7768335	
1394.500	0.7599374	
1394.000	0.7434948	
1393.500	0.7276533	
1393.000	0.7124276	
1392.500	0.6976605	
1392.000	0.6833255	
1391.500	0.6696089	
1391.000	0.6566575	
1390.500	0.6443577	
1390.000	0.6324343	
1389.500	0.6207574	
1389.000	0.6093969	
1388.500	0.5983942	
1388.000	0.5876906	
1387.500	0.577187	
1387.000	0.5668221	
1386.500	0.5566453	
1386.000	0.5466977	
1385.500	0.5369686	
1385.000	0.5275044	
1384.500	0.5184412	
1384.000	0.5098734	
1383.500	0.5017209	
1383.000	0.4937481	
1382.500	0.4858232	
1382.000	0.4780566	
1381.500	0.4706035	
1381.000	0.4635082	
1380.500	0.4567598	
1380.000	0.4503485	
1379.500	0.4442189	
1379.000	0.4382553	
1378.500	0.4323765	
1378.000	0.4266051	
1377.500	0.4210054	
1377.000	0.4155982	
1376.500	0.410367	
1376.000	0.4052741	
1375.500	0.4003187	
1375.000	0.3955359	
1374.500	0.3909316	
1374.000	0.386457	
1373.500	0.382026	
1373.000	0.3776166	
1372.500	0.3733223	
1372.000	0.3692552	
1371.500	0.3654439	
1371.000	0.3618417	
1370.500	0.3584126	
1370.000	0.3551909	
1369.500	0.3522262	
1369.000	0.3495028	
1368.500	0.3469241	
1368.000	0.344423	
1367.500	0.3420532	
1367.000	0.3398835	
1366.500	0.3378766	
1366.000	0.3359368	
1365.500	0.3340459	
1365.000	0.3322632	
1364.500	0.3306083	
1364.000	0.3290387	
1363.500	0.3275216	
1363.000	0.3260761	
1362.500	0.3247405	
1362.000	0.3235257	
1361.500	0.3224221	
1361.000	0.3214385	
1360.500	0.3206191	
1360.000	0.3200323	
1359.500	0.3196712	
1359.000	0.3194121	
1358.500	0.3191341	
1358.000	0.3188887	
1357.500	0.3188225	
1357.000	0.3189565	
1356.500	0.3191858	
1356.000	0.319454	
1355.500	0.3198255	
1355.000	0.3203707	
1354.500	0.321065	
1354.000	0.32185	
1353.500	0.3227171	
1353.000	0.3236923	
1352.500	0.3247977	
1352.000	0.3260514	
1351.500	0.3274576	
1351.000	0.3289864	
1350.500	0.3305908	
1350.000	0.3322584	
1349.500	0.334018	
1349.000	0.3358979	
1348.500	0.3378993	
1348.000	0.3400088	
1347.500	0.3422391	
1347.000	0.344642	
1346.500	0.3472659	
1346.000	0.3501056	
1345.500	0.3531099	
1345.000	0.356225	
1344.500	0.3594171	
1344.000	0.3626772	
1343.500	0.3660228	
1343.000	0.3694895	
1342.500	0.3730947	
1342.000	0.376811	
1341.500	0.3805905	
1341.000	0.3844357	
1340.500	0.388416	
1340.000	0.392601	
1339.500	0.3970252	
1339.000	0.4016899	
1338.500	0.4065907	
1338.000	0.4117334	
1337.500	0.4171392	
1337.000	0.4228153	
1336.500	0.4287232	
1336.000	0.4347974	
1335.500	0.4410035	
1335.000	0.4473409	
1334.500	0.4538119	
1334.000	0.4604231	
1333.500	0.467202	
1333.000	0.4741692	
1332.500	0.4813014	
1332.000	0.4885559	
1331.500	0.4959344	
1331.000	0.5034938	
1330.500	0.5112828	
1330.000	0.519296	
1329.500	0.5275065	
1329.000	0.5359055	
1328.500	0.5445057	
1328.000	0.5533351	
1327.500	0.5624277	
1327.000	0.5717945	
1326.500	0.5814213	
1326.000	0.5913165	
1325.500	0.6015285	
1325.000	0.6120774	
1324.500	0.6229071	
1324.000	0.6339432	
1323.500	0.6451692	
1323.000	0.65661	
1322.500	0.6682785	
1322.000	0.6801776	
1321.500	0.6923432	
1321.000	0.7048308	
1320.500	0.7176605	
1320.000	0.7308061	
1319.500	0.7442392	
1319.000	0.7579575	
1318.500	0.771964	
1318.000	0.7862634	
1317.500	0.8008702	
1317.000	0.8158155	
1316.500	0.8311521	
1316.000	0.8469594	
1315.500	0.8632894	
1315.000	0.8800981	
1314.500	0.8972807	
1314.000	0.9147988	
1313.500	0.9327202	
1313.000	0.9511091	
1312.500	0.9699562	
1312.000	0.9892544	
1311.500	1.009091	
1311.000	1.029574	
1310.500	1.050708	
1310.000	1.072384	
1309.500	1.094479	
1309.000	1.116914	
1308.500	1.139679	
1308.000	1.162873	
1307.500	1.186695	
1307.000	1.211317	
1306.500	1.236758	
1306.000	1.262911	
1305.500	1.289627	
1305.000	1.316791	
1304.500	1.344443	
1304.000	1.372927	
1303.500	1.402831	
1303.000	1.434606	
1302.500	1.468226	
1302.000	1.503274	
1301.500	1.53927	
1301.000	1.575919	
1300.500	1.61325	
1300.000	1.65167	
1299.500	1.691702	
1299.000	1.733631	
1298.500	1.7776	
1298.000	1.824228	
1297.500	1.874517	
1297.000	1.928998	
1296.500	1.987341	
1296.000	2.048751	
1295.500	2.112277	
1295.000	2.175253	
1294.500	2.23446	
1294.000	2.290623	
1293.500	2.353195	
1293.000	2.434547	
1292.500	2.52684	
1292.000	2.628937	
1291.500	2.715698	
1291.000	2.798662	
1290.500	2.850237	
1290.000	2.902031	
1289.500	2.980877	
1289.000	3.043141	
1288.500	3.133236	
1288.000	3.260937	
1287.500	3.383217	
1287.000	3.49587	
1286.500	3.579308	
1286.000	3.629168	
1285.500	3.662123	
1285.000	3.692997	
1284.500	3.715887	
1284.000	3.709085	
1283.500	3.682795	
1283.000	3.697485	
1282.500	3.708532	
1282.000	3.692463	
1281.500	3.661296	
1281.000	3.614953	
1280.500	3.547829	
1280.000	3.489704	
1279.500	3.438064	
1279.000	3.373413	
1278.500	3.360749	
1278.000	3.362551	
1277.500	3.330194	
1277.000	3.281449	
1276.500	3.190707	
1276.000	3.105062	
1275.500	3.079757	
1275.000	3.074357	
1274.500	3.055052	
1274.000	3.024942	
1273.500	3.024305	
1273.000	3.077032	
1272.500	3.109685	
1272.000	3.127874	
1271.500	3.150826	
1271.000	3.153671	
1270.500	3.15394	
1270.000	3.152178	
1269.500	3.161651	
1269.000	3.179698	
1268.500	3.193129	
1268.000	3.186486	
1267.500	3.184367	
1267.000	3.199097	
1266.500	3.209408	
1266.000	3.243144	
1265.500	3.280799	
1265.000	3.27972	
1264.500	3.27837	
1264.000	3.288525	
1263.500	3.29424	
1263.000	3.297076	
1262.500	3.299659	
1262.000	3.29821	
1261.500	3.272314	
1261.000	3.264083	
1260.500	3.314621	
1260.000	3.411343	
1259.500	3.503828	
1259.000	3.58302	
1258.500	3.628842	
1258.000	3.670718	
1257.500	3.718814	
1257.000	3.751798	
1256.500	3.735859	
1256.000	3.674931	
1255.500	3.616626	
1255.000	3.580448	
1254.500	3.550498	
1254.000	3.505204	
1253.500	3.446889	
1253.000	3.407061	
1252.500	3.381619	
1252.000	3.347325	
1251.500	3.313515	
1251.000	3.330589	
1250.500	3.386787	
1250.000	3.432814	
1249.500	3.44466	
1249.000	3.439231	
1248.500	3.411271	
1248.000	3.382114	
1247.500	3.343089	
1247.000	3.300067	
1246.500	3.245785	
1246.000	3.197573	
1245.500	3.18082	
1245.000	3.162122	
1244.500	3.12746	
1244.000	3.094031	
1243.500	3.068518	
1243.000	3.050353	
1242.500	3.021648	
1242.000	2.974863	
1241.500	2.917965	
1241.000	2.853871	
1240.500	2.780584	
1240.000	2.698563	
1239.500	2.611284	
1239.000	2.521968	
1238.500	2.433657	
1238.000	2.348042	
1237.500	2.264322	
1237.000	2.182155	
1236.500	2.103305	
1236.000	2.03001	
1235.500	1.963897	
1235.000	1.905539	
1234.500	1.854157	
1234.000	1.80709	
1233.500	1.761197	
1233.000	1.715252	
1232.500	1.669979	
1232.000	1.62663	
1231.500	1.585723	
1231.000	1.546794	
1230.500	1.509092	
1230.000	1.472218	
1229.500	1.436287	
1229.000	1.401801	
1228.500	1.369324	
1228.000	1.338986	
1227.500	1.310338	
1227.000	1.282825	
1226.500	1.256285	
1226.000	1.230885	
1225.500	1.206712	
1225.000	1.18362	
1224.500	1.161433	
1224.000	1.14011	
1223.500	1.119615	
1223.000	1.099768	
1222.500	1.080314	
1222.000	1.06108	
1221.500	1.042024	
1221.000	1.023195	
1220.500	1.004673	
1220.000	0.9865116	
1219.500	0.9686597	
1219.000	0.950976	
1218.500	0.9333482	
1218.000	0.9157896	
1217.500	0.8984197	
1217.000	0.8813836	
1216.500	0.8647955	
1216.000	0.8487075	
1215.500	0.8331034	
1215.000	0.81795	
1214.500	0.8032742	
1214.000	0.7891655	
1213.500	0.7756905	
1213.000	0.7628356	
1212.500	0.7505472	
1212.000	0.7387896	
1211.500	0.7275437	
1211.000	0.7167809	
1210.500	0.7064665	
1210.000	0.6965682	
1209.500	0.6870416	
1209.000	0.6778276	
1208.500	0.668885	
1208.000	0.6602059	
1207.500	0.6517842	
1207.000	0.6435881	
1206.500	0.635586	
1206.000	0.62778	
1205.500	0.6201965	
1205.000	0.6128562	
1204.500	0.6057738	
1204.000	0.598967	
1203.500	0.5924412	
1203.000	0.5861761	
1202.500	0.5801507	
1202.000	0.5743669	
1201.500	0.568828	
1201.000	0.563504	
1200.500	0.558349	
1200.000	0.553351	
1199.500	0.5485421	
1199.000	0.5439584	
1198.500	0.5396095	
1198.000	0.5354857	
1197.500	0.5315689	
1197.000	0.5278265	
1196.500	0.5242094	
1196.000	0.5206753	
1195.500	0.5172164	
1195.000	0.5138656	
1194.500	0.5106755	
1194.000	0.5076851	
1193.500	0.5049024	
1193.000	0.502317	
1192.500	0.4999248	
1192.000	0.4977267	
1191.500	0.4957046	
1191.000	0.4938209	
1190.500	0.4920586	
1190.000	0.4904496	
1189.500	0.4890463	
1189.000	0.4878747	
1188.500	0.4869286	
1188.000	0.4861962	
1187.500	0.485669	
1187.000	0.4853263	
1186.500	0.4851363	
1186.000	0.4850857	
1185.500	0.4851971	
1185.000	0.4855093	
1184.500	0.486045	
1184.000	0.4867943	
1183.500	0.4877193	
1183.000	0.4887724	
1182.500	0.4899183	
1182.000	0.491145	
1181.500	0.4924593	
1181.000	0.4938811	
1180.500	0.4954447	
1180.000	0.4971911	
1179.500	0.4991435	
1179.000	0.5012909	
1178.500	0.5036041	
1178.000	0.506062	
1177.500	0.5086564	
1177.000	0.5113843	
1176.500	0.5142554	
1176.000	0.5173109	
1175.500	0.5206192	
1175.000	0.5242481	
1174.500	0.5282353	
1174.000	0.5325746	
1173.500	0.5372214	
1173.000	0.5421188	
1172.500	0.5472348	
1172.000	0.5525752	
1171.500	0.5581571	
1171.000	0.5639835	
1170.500	0.5700619	
1170.000	0.5764413	
1169.500	0.5832028	
1169.000	0.5904016	
1168.500	0.5980212	
1168.000	0.6059824	
1167.500	0.6141933	
1167.000	0.6226	
1166.500	0.6312052	
1166.000	0.6400386	
1165.500	0.6491099	
1165.000	0.6583985	
1164.500	0.6678874	
1164.000	0.6775738	
1163.500	0.6874234	
1163.000	0.6973366	
1162.500	0.7071907	
1162.000	0.7168966	
1161.500	0.7263853	
1161.000	0.7355576	
1160.500	0.7442928	
1160.000	0.7524911	
1159.500	0.7600572	
1159.000	0.7668359	
1158.500	0.7725996	
1158.000	0.7771217	
1157.500	0.7802501	
1157.000	0.7819218	
1156.500	0.7821299	
1156.000	0.7808739	
1155.500	0.7781314	
1155.000	0.7738798	
1154.500	0.7681407	
1154.000	0.7609772	
1153.500	0.7524482	
1153.000	0.7426179	
1152.500	0.7316277	
1152.000	0.7197137	
1151.500	0.7071128	
1151.000	0.6939836	
1150.500	0.6804411	
1150.000	0.6666206	
1149.500	0.6526515	
1149.000	0.6385927	
1148.500	0.6244504	
1148.000	0.6102626	
1147.500	0.5961382	
1147.000	0.5822205	
1146.500	0.5686358	
1146.000	0.5554679	
1145.500	0.5427453	
1145.000	0.5304419	
1144.500	0.5185001	
1144.000	0.5068572	
1143.500	0.4954613	
1143.000	0.484287	
1142.500	0.4733511	
1142.000	0.4627034	
1141.500	0.4523905	
1141.000	0.4424363	
1140.500	0.4328517	
1140.000	0.423636	
1139.500	0.4147549	
1139.000	0.4061374	
1138.500	0.3977158	
1138.000	0.3894629	
1137.500	0.3813845	
1137.000	0.3735001	
1136.500	0.3658459	
1136.000	0.3584722	
1135.500	0.3514057	
1135.000	0.3446166	
1134.500	0.3380413	
1134.000	0.3316306	
1133.500	0.3253628	
1133.000	0.3192242	
1132.500	0.3132024	
1132.000	0.3072992	
1131.500	0.3015264	
1131.000	0.2958891	
1130.500	0.2903887	
1130.000	0.2850435	
1129.500	0.2798859	
1129.000	0.2749303	
1128.500	0.2701564	
1128.000	0.2655324	
1127.500	0.2610472	
1127.000	0.2567166	
1126.500	0.2525596	
1126.000	0.2485738	
1125.500	0.2447286	
1125.000	0.2409842	
1124.500	0.2373173	
1124.000	0.2337264	
1123.500	0.2302157	
1123.000	0.2267835	
1122.500	0.2234316	
1122.000	0.2201706	
1121.500	0.2170015	
1121.000	0.2139029	
1120.500	0.2108506	
1120.000	0.2078445	
1119.500	0.2048977	
1119.000	0.2020029	
1118.500	0.1991339	
1118.000	0.1962848	
1117.500	0.1934917	
1117.000	0.1908033	
1116.500	0.1882399	
1116.000	0.1857874	
1115.500	0.1834216	
1115.000	0.1811262	
1114.500	0.1788893	
1114.000	0.1766912	
1113.500	0.1744992	
1113.000	0.1722804	
1112.500	0.1700248	
1112.000	0.1677563	
1111.500	0.1655165	
1111.000	0.163336	
1110.500	0.161226	
1110.000	0.1591797	
1109.500	0.1571871	
1109.000	0.1552358	
1108.500	0.1533144	
1108.000	0.1514199	
1107.500	0.1495533	
1107.000	0.1477095	
1106.500	0.1458812	
1106.000	0.1440734	
1105.500	0.1423069	
1105.000	0.140596	
1104.500	0.1391289	
1104.000	0.1376643	
1103.500	0.1360882	
1103.000	0.1343221	
1102.500	0.1323734	
1102.000	0.1303527	
1101.500	0.1284489	
1101.000	0.1268811	
1100.500	0.125875	
